File: data/ReportRaw/Resin_TXT/Unknown_Resin_15Bi/Tensile_Test_02.txt
Program Started: Thu, Jul 18, 2024	11:47:51 AM	System: µTS4
Test Notes:

User displacement limits active. Low limit -20.000E-3 m, high limit 20.000E-3 m.
User load limits active. Low limit -1.600E+3 N, high limit 1.600E+3 N.

No closed loop control sensors in this test.

Test Segments:
 1. Ramp in Drive Control, +5.00E-3m Amplitude, 10.00E-6 m/s Speed. Sampling at 20.000 Hz, Lowpass Filter Cutoff of 100.000 Hz

Specimen Thickness (m): 	1.500E-3
Specimen Width (m): 	1.930E-3
Specimen Diameter (m): 	0.000E+0
Specimen Area (m^2): 	2.895E-6
Specimen Length (m): 	5.000E-3

Test Started: Thu, Jul 18, 2024	1:19:27 PM
Time (s)	LCFS1600 (N)	LCW1600 (N)	ECATENC (m)	SpecTemp (C)	AirTemp (C)	OutletTemp (C)	JTemp1600 (C)	GTemp1600 (C)	CUR (A)	Ve (V)	Trigger (#)
0.0000000000E+0	0.0689161	-0.0283497	-1.13191e-16	23.5231	23.5551	23.491	32.6062	0.483825	0.0339475	10.1439	-1
2.2	1.64499	1.51991	2.1318e-05	23.515	23.5445	23.4855	32.6066	0.485167	0.274541	10.1439	-1
4.4	2.85742	2.81215	4.33097e-05	23.5227	23.5508	23.4946	32.6068	0.484984	0.377896	10.1439	-1
6.6	4.2107	4.0879	6.53037e-05	23.5108	23.5287	23.4928	32.607	0.484059	0.462907	10.144	-1
8.8	5.68886	5.5723	8.7306e-05	23.5289	23.5538	23.5041	32.6063	0.484971	0.428758	10.1442	-1
11	7.32699	7.16083	0.000109285	23.524	23.5489	23.499	32.607	0.48398	0.361838	10.1445	-1
13.2	8.80883	8.53944	0.000131284	23.5241	23.5545	23.4937	32.6061	0.486317	0.296935	10.1442	-1
15.4	10.1391	9.98193	0.000153284	23.5232	23.5466	23.4999	32.6084	0.484141	0.274389	10.145	-1
17.6	11.8148	11.7099	0.000175301	23.5351	23.5671	23.5031	32.608	0.484719	0.266976	10.1446	-1
19.8	14.0139	13.9487	0.000197296	23.5229	23.5406	23.5052	32.6073	0.483369	0.194828	10.1445	-1
22	16.4361	16.3005	0.000219275	23.5207	23.5562	23.4853	32.607	0.484136	0.276461	10.1447	-1
24.2	18.9395	18.7888	0.000241289	23.512	23.5525	23.4714	32.6073	0.483316	0.2713	10.1446	-1
26.4	21.5086	21.3489	0.000263246	23.5175	23.5425	23.4925	32.6072	0.482585	0.279927	10.1451	-1
28.6	23.9819	23.9275	0.000285277	23.5379	23.5676	23.5082	32.6076	0.483404	0.260489	10.1453	-1
30.8	26.6734	26.5423	0.000307261	23.5146	23.543	23.4862	32.6088	0.483691	0.330937	10.1455	-1
33	29.3244	29.2549	0.000329268	23.5221	23.5445	23.4998	32.6079	0.483182	0.397141	10.1453	-1
35.2	32.0752	Inf	0.000351244	23.5349	23.5489	23.5208	32.6079	0.483133	0.331337	10.1455	-1
37.4	34.8587	Inf	0.000373244	23.5169	23.5457	23.4881	32.609	0.483223	0.341964	10.1457	-1
39.6	37.851	Inf	0.000395229	23.5247	23.5573	23.492	32.6081	0.483324	0.37115	10.1458	-1
41.8	40.973	Inf	0.00041721	23.5193	23.5503	23.4882	32.6089	0.483296	0.354392	10.1456	-1
44	43.1827	Inf	0.000439224	23.5216	23.5557	23.4875	32.6085	0.483141	0.285048	10.1461	-1
46.2	45.0107	Inf	0.000461212	23.5325	23.5653	23.4998	32.609	0.482095	0.264829	10.1457	-1
48.4	47.3829	Inf	0.00048321	23.5165	23.542	23.4911	32.609	0.482415	0.270084	10.1455	-1
50.6	49.2532	Inf	0.000505203	23.5311	23.5692	23.4931	32.609	0.48189	0.281982	10.1457	-1
52.8	51.4922	Inf	0.00052721	23.5298	23.5575	23.5021	32.6097	0.483239	0.18545	10.1459	-1
55	53.6203	Inf	0.000549205	23.5342	23.5624	23.506	32.6095	0.482705	0.284858	10.1457	-1
57.2	55.746	Inf	0.000571204	23.5317	23.5554	23.508	32.6107	0.482207	0.293901	10.1455	-1
59.4	58.2734	Inf	0.000593196	23.5304	23.5598	23.501	32.61	0.48215	0.338101	10.146	-1
61.6	60.729	Inf	0.000615186	23.5201	23.5372	23.5031	32.6103	0.482307	0.323446	10.1458	-1
63.8	63.526	Inf	0.000637173	23.5291	23.5519	23.5063	32.6103	0.482227	0.342778	10.1456	-1
66	66.7781	Inf	0.000659171	23.5466	23.5696	23.5237	32.6115	0.482451	0.397024	10.1458	-1
68.2	69.8404	Inf	0.000681165	23.533	23.5521	23.5139	32.6109	0.480704	0.349908	10.1454	-1
70.4	72.7507	Inf	0.000703151	23.5389	23.5726	23.5051	32.612	0.481989	0.375595	10.1454	-1
72.6	75.799	Inf	0.000725154	23.5278	23.5501	23.5055	32.612	0.481829	0.406787	10.1456	-1
74.8	78.552	Inf	0.000747134	23.5352	23.5607	23.5097	32.6121	0.48257	0.453598	10.1452	-1
77	81.4129	Inf	0.000769144	23.5272	23.5455	23.5089	32.6113	0.481882	0.398635	10.1458	-1
79.2	84.0893	Inf	0.000791151	23.5324	23.5567	23.508	32.6108	0.482426	0.519809	10.1454	-1
81.4	86.5445	Inf	0.000813124	23.535	23.558	23.512	32.6111	0.482683	0.498243	10.1453	-1
83.6	88.9942	Inf	0.000835158	23.5346	23.5693	23.4999	32.6119	0.481721	0.604671	10.1458	-1
85.8	91.0713	Inf	0.000857127	23.5353	23.5535	23.5171	32.6099	0.483206	0.510052	10.1458	-1
88	93.055	Inf	0.000879126	23.5329	23.5517	23.5141	32.6117	0.482875	0.647295	10.1452	-1
90.2	94.6513	Inf	0.000901122	23.5319	23.5603	23.5035	32.6118	0.482351	0.702432	10.1455	-1
92.4	96.0106	Inf	0.000923119	23.5342	23.554	23.5144	32.6117	0.481933	0.751702	10.1451	-1
94.6	97.1813	Inf	0.000945096	23.5449	23.5815	23.5083	32.6122	0.481245	0.759903	10.1456	-1
96.8	98.0191	Inf	0.000967082	23.5286	23.5619	23.4954	32.6119	0.482084	0.753193	10.1455	-1
99	98.8884	Inf	0.000989104	23.5284	23.5574	23.4994	32.6109	0.480984	0.757695	10.1452	-1
101.2	99.3523	Inf	0.0010111	23.5376	23.5697	23.5055	32.6108	0.481275	0.680035	10.1456	-1
103.4	99.8276	Inf	0.00103308	23.5355	23.5554	23.5156	32.6131	0.481975	0.669733	10.1456	-1
105.6	100.097	Inf	0.00105508	23.5361	23.5585	23.5137	32.6136	0.481556	0.692079	10.1454	-1
107.8	100.201	Inf	0.00107707	23.5335	23.5636	23.5035	32.6122	0.481592	0.716975	10.1455	-1
110	100.223	Inf	0.00109909	23.5415	23.5654	23.5176	32.6146	0.48167	0.679991	10.1455	-1
112.2	100.202	Inf	0.00112108	23.528	23.5402	23.5157	32.6137	0.482197	0.704472	10.1452	-1
114.4	100.125	Inf	0.00114309	23.5337	23.5588	23.5087	32.615	0.481548	0.673915	10.1458	-1
116.6	99.822	Inf	0.00116508	23.5393	23.5636	23.515	32.6143	0.483264	0.691999	10.1453	-1
118.8	99.5475	Inf	0.00118704	23.5414	23.5721	23.5107	32.6137	0.481391	0.633004	10.1455	-1
121	99.2088	Inf	0.00120904	23.5409	23.5759	23.5058	32.614	0.481744	0.638788	10.1455	-1
123.2	99.0365	Inf	0.00123103	23.533	23.5617	23.5043	32.6144	0.481359	0.688596	10.145	-1
125.4	98.8282	Inf	0.00125304	23.531	23.5651	23.4969	32.6159	0.481339	0.693479	10.145	-1
127.6	98.3	Inf	0.00127502	23.5481	23.5675	23.5287	32.6161	0.481318	0.639091	10.1459	-1
129.8	98.3043	Inf	0.00129701	23.5318	23.5661	23.4975	32.616	0.479742	0.621629	10.1454	-1
132	98.0742	Inf	0.00131902	23.5555	23.5876	23.5235	32.6149	0.48128	0.660729	10.1455	-1
134.2	97.9923	Inf	0.00134103	23.5205	23.5492	23.4919	32.6153	0.481407	0.642211	10.1457	-1
136.4	98.3163	Inf	0.001363	23.5445	23.5804	23.5085	32.6149	0.481953	0.721645	10.1455	-1
138.6	98.4466	Inf	0.00138502	23.5478	23.5791	23.5165	32.6161	0.481122	0.848822	10.1456	-1
140.8	98.0061	Inf	0.00140702	23.5313	23.5658	23.4967	32.6161	0.481373	0.93362	10.1453	-1
143	97.7831	Inf	0.001429	23.5388	23.5682	23.5093	32.6161	0.481235	0.899131	10.1453	-1
145.2	97.3961	Inf	0.001451	23.5436	23.5723	23.5148	32.6148	0.481596	0.891859	10.1455	-1
147.4	97.1467	Inf	0.00147299	23.5371	23.5606	23.5136	32.616	0.481113	0.914068	10.1454	-1
149.6	96.9377	Inf	0.00149496	23.5641	23.5794	23.5487	32.6157	0.481927	1.02737	10.145	-1
151.8	96.7617	Inf	0.00151696	23.553	23.5803	23.5257	32.6149	0.481104	1.01436	10.1453	-1
154	96.8869	Inf	0.00153895	23.5517	23.5898	23.5137	32.6176	0.481329	0.971359	10.1455	-1
156.2	96.9664	Inf	0.00156096	23.5493	23.5814	23.5173	32.6164	0.481548	1.06905	10.1453	-1
158.4	97.0561	Inf	0.00158295	23.5426	23.575	23.5102	32.6166	0.481488	0.954202	10.1454	-1
160.6	97.1257	Inf	0.00160494	23.5544	23.586	23.5229	32.6176	0.480674	0.924827	10.1449	-1
162.8	97.3341	Inf	0.00162694	23.541	23.5683	23.5137	32.6186	0.480772	0.92843	10.1456	-1
165	97.3811	Inf	0.00164895	23.5588	23.5843	23.5333	32.6176	0.481175	1.04626	10.1453	-1
167.2	97.6858	Inf	0.00167095	23.5478	23.566	23.5296	32.6202	0.48184	1.0773	10.1455	-1
169.4	97.8559	Inf	0.00169293	23.5252	23.548	23.5023	32.617	0.481917	1.04082	10.1455	-1
171.6	98.0849	Inf	0.00171492	23.5377	23.5651	23.5102	32.6191	0.480205	1.11883	10.1451	-1
173.8	98.0743	Inf	0.00173696	23.5392	23.5638	23.5146	32.6172	0.481875	1.19817	10.1452	-1
176	98.3068	Inf	0.00175892	23.5374	23.5671	23.5076	32.6191	0.481251	1.09671	10.145	-1
178.2	98.4226	Inf	0.00178093	23.5467	23.5672	23.5262	32.6186	0.481408	1.06097	10.1448	-1
180.4	98.645	Inf	0.00180291	23.5349	23.5628	23.507	32.6194	0.481527	1.02651	10.1454	-1
182.6	98.8865	Inf	0.00182492	23.5509	23.585	23.5167	32.6191	0.481575	1.05121	10.1452	-1
184.8	99.0913	Inf	0.00184691	23.5341	23.5662	23.502	32.6198	0.481249	0.941472	10.1453	-1
187	99.2536	Inf	0.00186889	23.5521	23.5742	23.53	32.6182	0.481105	0.880297	10.1453	-1
189.2	99.4672	Inf	0.0018909	23.558	23.5779	23.5382	32.6199	0.480954	0.945499	10.1454	-1
191.4	99.6732	Inf	0.00191289	23.5515	23.5641	23.5389	32.6196	0.481956	0.966893	10.1459	-1
193.6	99.8895	Inf	0.00193485	23.55	23.5686	23.5315	32.62	0.481528	0.975898	10.1452	-1
195.8	100.127	Inf	0.00195688	23.5504	23.5787	23.5221	32.6205	0.481344	0.933606	10.1456	-1
198	100.359	Inf	0.00197889	23.5568	23.5852	23.5284	32.6201	0.481317	0.974564	10.1454	-1
200.2	100.734	Inf	0.0020009	23.5544	23.5836	23.5253	32.6224	0.481633	0.912586	10.1456	-1
202.4	100.845	Inf	0.00202287	23.5602	23.5986	23.5219	32.6209	0.481105	0.812521	10.1451	-1
204.6	100.794	Inf	0.00204485	23.5555	23.5716	23.5394	32.6193	0.482104	0.728083	10.1453	-1
206.8	101.184	Inf	0.00206686	23.5542	23.579	23.5294	32.6207	0.481193	0.841686	10.1453	-1
209	101.445	Inf	0.00208886	23.5503	23.5781	23.5226	32.6197	0.481634	0.818975	10.1454	-1
211.2	101.633	Inf	0.00211082	23.5701	23.5793	23.5609	32.6204	0.481745	0.797907	10.1454	-1
213.4	101.933	Inf	0.00213285	23.5591	23.5804	23.5378	32.6186	0.480437	0.7866	10.1453	-1
215.6	102.129	Inf	0.00215482	23.5549	23.5828	23.527	32.6209	0.480186	0.757131	10.1451	-1
217.8	102.316	Inf	0.00217685	23.5593	23.5862	23.5324	32.6209	0.480674	0.677603	10.1452	-1
220	102.476	Inf	0.00219882	23.5448	23.5705	23.5191	32.6197	0.481749	0.573012	10.1451	-1
222.2	102.474	Inf	0.00222083	23.57	23.5915	23.5484	32.6232	0.479882	0.593187	10.1455	-1
224.4	102.436	Inf	0.00224278	23.5543	23.576	23.5326	32.6213	0.481673	0.522593	10.1455	-1
226.6	102.64	Inf	0.00226482	23.5525	23.5786	23.5263	32.6202	0.481469	0.546337	10.1454	-1
228.8	102.8	Inf	0.00228683	23.5602	23.5842	23.5361	32.6223	0.481626	0.507088	10.1454	-1
231	102.873	Inf	0.00230881	23.5581	23.588	23.5281	32.6227	0.480561	0.578134	10.1452	-1
233.2	103.055	Inf	0.00233079	23.5529	23.5785	23.5273	32.6209	0.48144	0.609604	10.1455	-1
235.4	103.18	Inf	0.00235278	23.5768	23.5983	23.5554	32.621	0.481557	0.544545	10.1452	-1
237.6	103.328	Inf	0.00237477	23.568	23.6012	23.5348	32.6218	0.480624	0.51812	10.146	-1
239.8	103.38	Inf	0.00239675	23.5617	23.5784	23.5451	32.6229	0.481499	0.606648	10.1454	-1
242	-0.198176	-0.812445	0.00241872	23.5658	23.5972	23.5343	32.6241	0.481777	0.264724	10.1435	-1
244.05	-0.422669	-0.923259	0.00243921	23.5803	23.6027	23.558	32.6246	0.482519	0.237609	10.1442	-1