File: data/ReportRaw/Resin_TXT/Unknown_Resin_15Bi/Tensile_Test_01.txt
Program Started: Thu, Jul 18, 2024	11:47:51 AM	System: µTS4
Test Notes:

User displacement limits active. Low limit -20.000E-3 m, high limit 20.000E-3 m.
User load limits active. Low limit -1.600E+3 N, high limit 1.600E+3 N.

No closed loop control sensors in this test.

Test Segments:
 1. Ramp in Drive Control, +5.00E-3m Amplitude, 10.00E-6 m/s Speed. Sampling at 20.000 Hz, Lowpass Filter Cutoff of 100.000 Hz

Specimen Thickness (m): 	1.470E-3
Specimen Width (m): 	1.930E-3
Specimen Diameter (m): 	0.000E+0
Specimen Area (m^2): 	2.837E-6
Specimen Length (m): 	5.000E-3

Test Started: Thu, Jul 18, 2024	1:13:54 PM
Time (s)	LCFS1600 (N)	LCW1600 (N)	ECATENC (m)	SpecTemp (C)	AirTemp (C)	OutletTemp (C)	JTemp1600 (C)	GTemp1600 (C)	CUR (A)	Ve (V)	Trigger (#)
0.0000000000E+0	-0.0371654	-0.00473816	-3.40439e-16	23.4669	23.4955	23.4383	32.5877	0.488896	0.0810856	10.1429	-1
1.1	1.19248	1.16276	9.74246e-06	23.4598	23.4916	23.4279	32.5889	0.488175	0.151847	10.1432	-1
2.2	1.70774	1.67056	2.07225e-05	23.4336	23.4653	23.4019	32.587	0.489283	0.133899	10.1433	-1
3.3	2.10021	2.13163	3.17332e-05	23.4589	23.4945	23.4234	32.5877	0.487881	0.140594	10.1431	-1
4.4	2.62302	2.62357	4.27011e-05	23.4275	23.4762	23.3789	32.5888	0.488691	0.0921182	10.1436	-1
5.5	3.0887	3.09382	5.37097e-05	23.4469	23.4679	23.426	32.5852	0.48905	0.172481	10.1435	-1
6.6	3.32472	3.34715	6.47193e-05	23.4403	23.4592	23.4215	32.5874	0.487829	0.0881512	10.1437	-1
7.7	3.83512	3.86834	7.56997e-05	23.4406	23.4602	23.4211	32.5876	0.487826	0.199457	10.1435	-1
8.8	4.31068	4.41854	8.67122e-05	23.4393	23.4716	23.4069	32.5879	0.48809	0.142205	10.1433	-1
9.9	4.97217	5.00646	9.76771e-05	23.4463	23.4796	23.4129	32.5877	0.488464	0.247239	10.1436	-1
11	5.52664	5.57197	0.000108691	23.4378	23.4674	23.4082	32.5883	0.488583	0.173194	10.1434	-1
12.1	6.3133	6.23915	0.000119697	23.447	23.4663	23.4278	32.5876	0.48858	0.231081	10.1434	-1
13.2	6.83982	6.90162	0.000130706	23.4436	23.4715	23.4158	32.5868	0.488074	0.156978	10.1436	-1
14.3	7.61074	7.68606	0.000141662	23.4548	23.4776	23.4321	32.589	0.488302	0.241384	10.1432	-1
15.4	8.46868	8.59169	0.000152708	23.4412	23.4679	23.4146	32.588	0.487548	0.20231	10.1433	-1
16.5	9.57965	9.61041	0.000163657	23.441	23.4602	23.4218	32.5876	0.487388	0.267458	10.1436	-1
17.6	10.728	10.7904	0.000174698	23.4488	23.4655	23.4321	32.5884	0.488233	0.295376	10.1436	-1
18.7	12.1166	12.1162	0.000185659	23.4534	23.4721	23.4347	32.5872	0.487766	0.267364	10.1437	-1
19.8	13.477	13.5362	0.00019668	23.4468	23.466	23.4277	32.5875	0.488818	0.279561	10.1439	-1
20.9	15.0002	15.0475	0.00020767	23.4489	23.4671	23.4307	32.5884	0.487286	0.210818	10.1437	-1
22	16.548	16.5706	0.000218665	23.4457	23.4745	23.417	32.5876	0.487427	0.310377	10.1439	-1
23.1	18.0344	18.1128	0.000229639	23.4465	23.4629	23.4301	32.5879	0.488355	0.227039	10.144	-1
24.2	19.5992	19.6771	0.000240679	23.4322	23.4614	23.403	32.5878	0.487964	0.302615	10.1442	-1
25.3	21.2318	21.3215	0.00025167	23.4389	23.4522	23.4256	32.5872	0.488512	0.204478	10.1441	-1
26.4	22.8869	22.9245	0.000262658	23.438	23.4591	23.4169	32.5877	0.487614	0.315466	10.1445	-1
27.5	24.577	24.6287	0.000273656	23.4358	23.4561	23.4155	32.5879	0.4879	0.261129	10.1446	-1
28.6	26.0085	26.0618	0.00028464	23.4513	23.4774	23.4252	32.5894	0.488561	0.25047	10.1441	-1
29.7	27.4157	27.4864	0.000295643	23.437	23.4741	23.3999	32.5874	0.48798	0.188695	10.144	-1
30.8	29.0305	29.0448	0.00030663	23.4244	23.4535	23.3952	32.588	0.486843	0.216118	10.1447	-1
31.9	30.3779	30.478	0.000317658	23.4436	23.462	23.4251	32.5874	0.488737	0.241452	10.1442	-1
33	31.9921	Inf	0.000328626	23.4475	23.4604	23.4346	32.5886	0.487063	0.233779	10.1451	-1
34.1	33.4938	Inf	0.000339638	23.4297	23.4446	23.4148	32.5871	0.487393	0.281887	10.1446	-1
35.2	34.92	Inf	0.000350613	23.4552	23.479	23.4313	32.5905	0.487578	0.188789	10.1452	-1
36.3	36.4775	Inf	0.000361635	23.4452	23.4641	23.4264	32.5883	0.486931	0.295483	10.145	-1
37.4	37.9126	Inf	0.000372626	23.4469	23.4677	23.426	32.5871	0.487256	0.176496	10.1448	-1
38.5	39.3146	Inf	0.00038362	23.4621	23.4903	23.4339	32.5882	0.486384	0.22892	10.145	-1
39.6	40.4159	Inf	0.000394612	23.4447	23.4633	23.426	32.5869	0.488015	0.150892	10.1449	-1
40.7	41.6924	Inf	0.000405597	23.4416	23.4833	23.3999	32.5874	0.487069	0.258161	10.145	-1
41.8	42.938	Inf	0.000416614	23.4324	23.4657	23.399	32.5881	0.487952	0.245789	10.1449	-1
42.9	44.2851	Inf	0.000427599	23.4352	23.4533	23.4171	32.5885	0.487593	0.285349	10.145	-1
44	45.4402	Inf	0.000438657	23.4421	23.4891	23.395	32.5892	0.487525	0.25174	10.1447	-1
45.1	46.5581	Inf	0.000449615	23.4231	23.4423	23.4039	32.5893	0.486667	0.246637	10.145	-1
46.2	47.6926	Inf	0.000460607	23.4501	23.4708	23.4294	32.5885	0.486966	0.258361	10.145	-1
47.3	48.9771	Inf	0.000471592	23.4505	23.4701	23.431	32.5879	0.487308	0.249329	10.1448	-1
48.4	50.6098	Inf	0.0004826	23.4461	23.4821	23.4101	32.5888	0.487251	0.314072	10.1452	-1
49.5	51.9107	Inf	0.000493607	23.4539	23.4764	23.4313	32.5873	0.485888	0.310664	10.1452	-1
50.6	53.3568	Inf	0.000504601	23.4305	23.4554	23.4055	32.5892	0.487473	0.417484	10.1454	-1
51.7	54.8519	Inf	0.000515598	23.4471	23.4748	23.4193	32.5904	0.48662	0.337125	10.1452	-1
52.8	56.4192	Inf	0.000526586	23.4527	23.4805	23.4248	32.5887	0.486689	0.359042	10.1451	-1
53.9	57.9652	Inf	0.000537588	23.4462	23.4786	23.4137	32.5886	0.4866	0.29442	10.1449	-1
55	59.4625	Inf	0.000548551	23.4514	23.4782	23.4246	32.5885	0.486692	0.37196	10.1449	-1
56.1	61.0789	Inf	0.000559576	23.438	23.456	23.42	32.5885	0.485873	0.340226	10.145	-1
57.2	62.871	Inf	0.000570575	23.4481	23.4743	23.4218	32.5886	0.486928	0.372242	10.1449	-1
58.3	64.7172	Inf	0.000581573	23.4339	23.4508	23.4169	32.5888	0.486992	0.336134	10.1447	-1
59.4	66.4715	Inf	0.000592567	23.4418	23.4623	23.4212	32.5887	0.486694	0.365132	10.1448	-1
60.5	68.1547	Inf	0.000603573	23.4559	23.4806	23.4312	32.5886	0.486151	0.418205	10.1452	-1
61.6	69.8682	Inf	0.000614557	23.4542	23.4741	23.4344	32.5887	0.486437	0.375343	10.1452	-1
62.7	71.8317	Inf	0.000625575	23.4408	23.4706	23.4111	32.5884	0.486832	0.387739	10.1449	-1
63.8	73.545	Inf	0.000636563	23.4612	23.4795	23.4429	32.5884	0.487021	0.374306	10.1443	-1
64.9	75.2489	Inf	0.000647561	23.4305	23.4604	23.4007	32.5898	0.486199	0.533095	10.1451	-1
66	77.0197	Inf	0.000658552	23.4437	23.465	23.4225	32.5899	0.486383	0.550163	10.1454	-1
67.1	78.7304	Inf	0.000669549	23.4518	23.474	23.4295	32.5882	0.487073	0.653198	10.1452	-1
68.2	80.4225	Inf	0.00068057	23.4531	23.4858	23.4203	32.5882	0.48773	0.533599	10.1447	-1
69.3	82.3277	Inf	0.000691547	23.4421	23.472	23.4121	32.5879	0.486536	0.730977	10.1449	-1
70.4	84.13	Inf	0.000702567	23.454	23.4868	23.4211	32.588	0.487013	0.676848	10.1449	-1
71.5	85.5639	Inf	0.00071352	23.4603	23.4726	23.448	32.5891	0.486832	0.743802	10.1451	-1
72.6	86.8159	Inf	0.000724553	23.4517	23.4735	23.4299	32.5898	0.486454	0.672741	10.1452	-1
73.7	88.1621	Inf	0.000735523	23.4448	23.4556	23.4339	32.5904	0.486153	0.742426	10.1448	-1
74.8	89.5661	Inf	0.000746573	23.4628	23.4766	23.4491	32.5896	0.486774	0.780804	10.1449	-1
75.9	90.7063	Inf	0.000757511	23.4503	23.4681	23.4325	32.5892	0.485365	0.765449	10.1446	-1
77	91.9108	Inf	0.000768545	23.4384	23.462	23.4147	32.5888	0.486397	0.756459	10.1448	-1
78.1	93.1296	Inf	0.000779523	23.4768	23.5004	23.4533	32.5898	0.487642	0.705799	10.1449	-1
79.2	94.1561	Inf	0.000790556	23.4644	23.4899	23.439	32.5901	0.487309	0.770021	10.1449	-1
80.3	95.2404	Inf	0.000801519	23.4452	23.4645	23.4259	32.5902	0.486576	0.675157	10.1448	-1
81.4	96.2552	Inf	0.000812535	23.4297	23.4575	23.4019	32.5887	0.486902	0.792493	10.1448	-1
82.5	97.106	Inf	0.00082351	23.4461	23.4734	23.4189	32.5892	0.486931	0.778311	10.1449	-1
83.6	97.9432	Inf	0.000834502	23.4452	23.4601	23.4303	32.5899	0.485981	0.869001	10.1447	-1
84.7	98.6466	Inf	0.000845497	23.4467	23.4605	23.4329	32.5892	0.486882	0.838204	10.145	-1
85.8	99.2773	Inf	0.000856526	23.4381	23.4729	23.4032	32.5892	0.486213	0.85313	10.145	-1
86.9	99.822	Inf	0.000867506	23.4636	23.4793	23.4479	32.5902	0.487091	0.768905	10.1449	-1
88	100.312	Inf	0.000878507	23.4315	23.4586	23.4044	32.5907	0.486374	0.808063	10.1448	-1
89.1	100.847	Inf	0.000889513	23.4444	23.4721	23.4168	32.59	0.487252	0.797538	10.1451	-1
90.2	101.171	Inf	0.00090049	23.4545	23.4791	23.43	32.5917	0.48666	0.76973	10.1447	-1
91.3	101.518	Inf	0.00091149	23.4398	23.4631	23.4165	32.5897	0.486787	0.798839	10.1447	-1
92.4	101.674	Inf	0.00092248	23.4502	23.4648	23.4355	32.5904	0.486314	0.816241	10.1449	-1
93.5	101.853	Inf	0.0009335	23.4712	23.4924	23.4499	32.5893	0.486176	0.820604	10.145	-1
94.6	102.046	Inf	0.000944523	23.4382	23.4728	23.4037	32.5896	0.486254	0.67345	10.1451	-1
95.7	102.128	Inf	0.000955483	23.4508	23.4796	23.4221	32.5907	0.486919	0.743945	10.1451	-1
96.8	102.174	Inf	0.000966496	23.4515	23.4809	23.422	32.5905	0.486491	0.61679	10.1448	-1
97.9	102.088	Inf	0.00097749	23.4479	23.473	23.4229	32.5901	0.486732	0.728171	10.1453	-1
99	102.136	Inf	0.000988497	23.4535	23.4811	23.4258	32.5899	0.486653	0.708001	10.1446	-1
100.1	101.989	Inf	0.000999491	23.4597	23.4877	23.4318	32.5909	0.486983	0.747382	10.1449	-1
101.2	101.971	Inf	0.00101049	23.4536	23.471	23.4362	32.5928	0.486165	0.753856	10.1448	-1
102.3	101.787	Inf	0.00102147	23.4408	23.4642	23.4175	32.5905	0.487332	0.759562	10.1448	-1
103.4	101.656	Inf	0.00103249	23.4606	23.4859	23.4352	32.5921	0.485844	0.720213	10.1451	-1
104.5	101.543	Inf	0.00104347	23.4479	23.483	23.4127	32.5902	0.485154	0.775972	10.1447	-1
105.6	101.378	Inf	0.00105449	23.4413	23.47	23.4126	32.592	0.486186	0.785656	10.1451	-1
106.7	101.225	Inf	0.00106546	23.4683	23.5075	23.4292	32.5906	0.485819	0.752957	10.1451	-1
107.8	100.999	Inf	0.00107646	23.4553	23.4863	23.4244	32.5912	0.486996	0.831731	10.1452	-1
108.9	100.914	Inf	0.00108744	23.4458	23.4745	23.4171	32.5909	0.486918	0.80717	10.145	-1
110	100.896	Inf	0.00109846	23.4488	23.4684	23.4291	32.5903	0.486073	0.937929	10.1445	-1
111.1	100.849	Inf	0.00110943	23.4591	23.4796	23.4386	32.5924	0.487074	0.860708	10.1448	-1
112.2	100.782	Inf	0.00112045	23.4495	23.4796	23.4194	32.5908	0.48659	0.930744	10.145	-1
113.3	100.553	Inf	0.00113145	23.461	23.4816	23.4405	32.5921	0.48727	0.787662	10.1448	-1
114.4	-0.697206	-1.06139	0.00114244	23.4733	23.5026	23.4441	32.5921	0.487134	0.211624	10.1427	-1
115.5	-0.686413	-1.08358	0.00115344	23.4708	23.4973	23.4443	32.5928	0.487593	0.21752	10.1432	-1
116.6	-0.680723	-1.09566	0.00116443	23.4549	23.4663	23.4434	32.5928	0.487818	0.248718	10.143	-1
117.2	-0.704691	-1.10163	0.00117046	23.481	23.5111	23.451	32.5931	0.487456	0.30954	10.1432	-1