File: data/PrimaryData/V4_Resin/Tensile_test_2.csv
Displacement,Load
6.43149e-16,-0.291592
6.37169e-06,1.48271
1.43924e-05,2.93185
2.23587e-05,4.05708
3.03475e-05,5.1891
3.83816e-05,6.47535
4.63647e-05,7.66396
5.43543e-05,8.99117
6.23797e-05,10.3505
7.03503e-05,11.5394
7.83547e-05,13.2
8.63707e-05,14.712
9.43625e-05,16.3058
0.000102347,17.9313
0.000110336,19.4274
0.000118335,21.1797
0.000126279,22.9524
0.000134289,24.6897
0.000142284,26.4048
0.000150282,28.1508
0.000158287,30.0273
0.000166283,31.6479
0.000174276,33.1596
0.000182281,34.6635
0.000190278,36.3008
0.000198267,37.7621
0.000206289,39.0662
0.000214264,40.4159
0.000222264,41.7872
0.000230277,43.045
0.000238253,44.4446
0.000246265,45.7979
0.000254279,47.0549
0.000262245,48.5668
0.000270245,50.0024
0.000278261,51.6118
0.000286249,52.9868
0.000294249,54.4425
0.000302272,55.6641
0.000310237,57.0865
0.000318273,58.6812
0.000326244,60.3129
0.000334262,61.8756
0.000342255,63.3777
0.00035023,64.9983
0.000358232,66.4383
0.000366227,67.9338
0.000374301,69.6954
0.000382278,71.2516
0.000390288,72.8397
0.0003983,74.3293
0.000406268,75.8586
0.000414287,77.4839
0.00042229,79.1271
0.000430267,80.9506
0.000438289,82.565
0.000446297,84.3568
0.000454284,85.9071
0.00046227,87.6235
0.000470283,89.1839
0.000478279,90.819
0.000486236,92.4443
0.00049427,94.1257
0.000502278,95.7322
0.00051023,97.4973
0.000518273,99.311
0.000526271,101.236
0.000534269,103.148
0.000542276,105.012
0.000550253,106.898
0.000558247,108.705
0.000566277,110.577
0.000574252,112.393
0.000582267,114.193
0.000590264,115.963
0.000598245,117.775
0.000606262,119.48
0.000614271,121.21
0.00062221,122.846
0.000630246,124.495
0.00063827,126.126
0.000646246,127.631
0.000654242,129.204
0.000662253,130.876
0.000670238,132.298
0.00067823,133.76
0.000686259,135.247
0.000694226,136.685
0.000702228,138.035
0.000710211,139.425
0.00071822,140.897
0.000726203,142.16
0.00073421,143.561
0.000742215,144.839
0.000750232,146.001
0.000758228,147.321
0.000766204,148.492
0.000774223,149.713
0.000782224,150.716
0.000790172,151.948
0.0007982,152.841
0.000806218,153.955
0.000814199,154.876
0.00082223,155.642
0.000830224,156.598
0.000838206,157.552
0.000846197,158.321
0.000854182,159.04
0.000862216,159.818
0.000870186,160.462
0.000878205,161.125
0.000886183,161.568
0.000894195,162.301
0.000902195,162.688
0.000910164,163.106
0.0009182,163.596
0.000926171,163.887
0.000934172,164.163
0.00094217,164.513
0.000950185,164.738
0.000958171,164.811
0.000966199,165.042
0.000974192,165.079
0.000982152,165.237
0.000990168,165.279
0.000998192,165.21
0.00100616,165.084
0.00101417,165.033
0.00102216,164.964
0.00103014,164.864
0.00103814,164.644
0.00104615,164.612
0.00105416,164.335
0.00106216,164.009
0.00107012,163.72
0.0010781,163.562
0.00108608,163.248
0.00109407,162.855
0.00110206,162.668
0.00111008,162.151
0.00111809,161.799
0.00112606,161.366
0.0011341,161.095
0.00114208,160.675
0.00115006,160.207
0.0011581,159.841
0.00116606,159.535
0.00117408,159.194
0.00118208,158.807
0.00119006,158.333
0.00119806,157.987
0.00120606,157.66
0.00121405,157.099
0.00122204,156.703
0.00123004,156.324
0.00123806,156.006
0.00124607,155.656
0.00125407,155.369
0.00126211,154.796
0.00127008,154.509
0.00127809,154.252
0.0012861,153.795
0.0012941,153.372
0.00130212,153.013
0.00131007,152.644
0.00131809,152.347
0.00132611,152.04
0.00133407,151.802
0.0013421,151.475
0.00135009,151.076
0.00135808,150.89
0.00136607,150.646
0.00137408,150.363
0.00138209,150.092
0.00139007,149.794
0.00139807,149.612
0.00140606,149.289
0.00141407,149.095
0.00142209,148.964
0.00143006,148.679
0.00143804,148.707
0.00144608,148.509
0.00145407,148.208
0.00146208,148.132
0.00147007,147.861
0.00147805,147.866
0.00148605,147.718
0.00149409,147.687
0.00150208,147.484
0.00151006,147.334
0.00151808,147.246
0.00152604,147.12
0.00153405,147.083
0.00154203,146.99
0.00155004,146.932
0.00155805,146.781
0.00156603,146.581
0.00157406,146.511
0.00158204,146.428
0.00159005,146.223
0.00159802,146.315
0.00160602,146.223
0.00161405,145.919
0.00162203,145.967
0.00163002,145.843
0.00163804,145.832
0.00164602,145.745
0.00165402,145.596
0.00166204,145.713
0.00167002,145.473
0.00167803,145.472
0.00168601,145.366
0.001694,145.534
0.00170203,145.411
0.00171002,145.416
0.00171802,145.437
0.00172602,145.384
0.00173402,145.427
0.00174202,145.451
0.00175002,145.375
0.00175798,145.359
0.00176599,145.407
0.00177399,145.372
0.00178197,145.442
0.00179,145.5
0.00179799,145.622
0.001806,145.528
0.00181399,145.661
0.00182199,145.698
0.00182999,145.763
0.00183793,145.868
0.001846,145.989
0.00185401,145.998
0.00186198,146.005
0.00187,146.027
0.00187797,146.096
0.001886,146.156
0.00189399,146.166
0.00190198,146.289
0.00190994,146.197
0.00191797,146.314
0.00192596,146.417
0.00193394,146.469
0.00194198,146.434
0.00194994,146.418
0.00195795,146.695
0.00196596,146.725
0.00197391,146.787
0.00198188,146.774
0.00198994,146.9
0.00199792,146.839
0.00200588,146.96
0.00201391,146.921
0.00202188,147.103
0.00202989,146.988
0.00203791,147.028
0.00204591,147.15
0.00205386,147.236
0.00206189,147.27
0.00206988,147.353
0.00207787,147.469
0.00208591,147.524
0.00209387,147.463
0.00210187,147.505
0.00210988,147.726
0.00211786,147.76
0.00212584,147.825
0.00213387,147.907
0.00214188,148.118
0.00214987,148.104
0.0021579,148.16
0.00216586,148.268
0.00217388,148.297
0.00218193,148.404
0.00218992,148.507
0.0021979,148.535
0.00220593,148.631
0.0022139,148.719
0.00222184,148.772
0.0022299,148.961
0.00223791,148.933
0.00224589,149.006
0.00225389,149.045
0.00226189,149.118
0.00226989,149.23
0.00227789,149.127
0.00228589,149.249
0.00229373,-4.56988
0.00230189,-4.70514
0.00230988,-4.77494
0.00231787,-4.81103
0.00232138,-4.76599