File: data/PrimaryData/V4_Resin/Tensile_test_7.csv
Displacement (mm),Load (kN)
0.0,0.0011
0.0093,0.01
0.0201,0.0198
0.0305,0.0286
0.041,0.0363
0.0517,0.0434
0.0624,0.0506
0.073,0.0573
0.0837,0.0635
0.0945,0.0694
0.1055,0.0756
0.1161,0.0813
0.1263,0.0866
0.1368,0.0921
0.1476,0.0979
0.1586,0.1025
0.1695,0.1033
0.1798,0.1051
0.1904,0.1073
0.201,0.1101
0.2117,0.1147
0.2224,0.1204
0.233,0.1261
0.2438,0.1321
0.2547,0.138
0.2656,0.1434
0.2757,0.1476
0.2862,0.1519
0.2969,0.1564
0.3079,0.161
0.3189,0.1656
0.3293,0.1697
0.3397,0.1734
0.3503,0.1773
0.361,0.1813
0.3717,0.1851
0.3823,0.1888
0.3931,0.1925
0.4041,0.1964
0.4149,0.2001
0.4251,0.2032
0.4355,0.2063
0.4463,0.2099
0.4572,0.2136
0.4681,0.2172
0.4786,0.2205
0.489,0.2235
0.4997,0.2269
0.5104,0.2301
0.521,0.2333
0.5317,0.2366
0.5424,0.2399
0.5533,0.2432
0.5643,0.2467
0.5745,0.2496
0.5849,0.2525
0.5956,0.2556
0.6065,0.2591
0.6175,0.2627
0.628,0.2658
0.6384,0.2688
0.649,0.2718
0.6597,0.2752
0.6704,0.2785
0.681,0.2815
0.6917,0.2849
0.7026,0.2883
0.7136,0.2919
0.724,0.2949
0.7342,0.2977
0.7449,0.3009
0.7557,0.3043
0.7667,0.308
0.7774,0.3113
0.7878,0.3143
0.7983,0.3174
0.809,0.3205
0.8197,0.3237
0.8303,0.3267
0.8411,0.3299
0.852,0.3335
0.8629,0.3368
0.8733,0.3399
0.8836,0.343
0.8942,0.3464
0.9051,0.3499
0.9161,0.3537
0.9267,0.3572
0.9371,0.3603
0.9477,0.3637
0.9584,0.3671
0.969,0.3703
0.9797,0.3735
0.9904,0.3769
1.0012,0.3803
1.0122,0.384
1.0227,0.3871
1.0329,0.39
1.0435,0.3933
1.0544,0.3968
1.0654,0.4005
1.0761,0.4041
1.0865,0.4074
1.097,0.4107
1.1077,0.4142
1.1184,0.4176
1.129,0.421
1.1397,0.4243
1.1505,0.4278
1.1615,0.4314
1.1721,0.4347
1.1823,0.4375
1.1928,0.4406
1.2036,0.444
1.2147,0.4475
1.2255,0.4508
1.2358,0.4538
1.2463,0.457
1.257,0.4602
1.2677,0.4635
1.2783,0.4667
1.289,0.4702
1.2998,0.4736
1.3108,0.477
1.3214,0.4802
1.3316,0.483
1.3422,0.4859
1.353,0.488
1.364,0.4897
1.3748,0.4937
1.3852,0.497
1.3957,0.5005
1.4064,0.5038
1.417,0.5073
1.4277,0.5106
1.4383,0.5139
1.4491,0.5173
1.4601,0.5209
1.4709,0.5242
1.4811,0.527
1.4915,0.53
1.5023,0.5332
1.5132,0.5368
1.5242,0.5403
1.5346,0.5432
1.545,0.5462
1.5557,0.5494
1.5664,0.5525
1.577,0.5557
1.5876,0.5587
1.5984,0.5621
1.6094,0.5654
1.6202,0.5687
1.6305,0.5716
1.6408,0.5744
1.6516,0.5776
1.6625,0.5807
1.6734,0.5841
1.6839,0.5869
1.6944,0.5898
1.705,0.5928
1.7157,0.5959
1.7264,0.5987
1.737,0.6018
1.7477,0.6049
1.7587,0.6081
1.7696,0.6114
1.7798,0.6139
1.7902,0.6166
1.8009,0.6195
1.8118,0.6227
1.8228,0.626
1.8333,0.6286
1.8438,0.6312
1.8544,0.6342
1.865,0.637
1.8757,0.6397
1.8863,0.6424
1.8971,0.6453
1.908,0.6481
1.9189,0.65
1.9293,0.6514
1.9396,0.6532
1.9502,0.6561
1.9611,0.6592
1.9721,0.6624
1.9827,0.6652
1.9931,0.6677
2.0037,0.6702
2.0144,0.6729
2.025,0.6754
2.0356,0.6779
2.0464,0.6805
2.0573,0.6831
2.0683,0.686
2.0786,0.688
2.0889,0.69
2.0995,0.6925
2.1104,0.6948
2.1214,0.6974
2.1321,0.6997
2.1424,0.7017
2.153,0.7038
2.1637,0.7059
2.1744,0.7079
2.185,0.71
2.1957,0.7121
2.2065,0.7142
2.2175,0.7163
2.228,0.7182
2.2383,0.7197
2.2489,0.7213
2.2597,0.7233
2.2707,0.7253
2.2814,0.727
2.2918,0.7285
2.3024,0.7299
2.3131,0.7315
2.3237,0.7331
2.3343,0.7345
2.345,0.7359
2.3558,0.7376
2.3669,0.7392
2.3774,0.7404
2.3876,0.7413
2.3982,0.7423
2.409,0.7436
2.42,0.7451
2.4308,0.746
2.4412,0.7468
2.4517,0.7475
2.4623,0.7483
2.4731,0.7492
2.4837,0.7498
2.4944,0.7505
2.5052,0.7512
2.5161,0.752
2.5268,0.7525
2.537,0.7525
2.5475,0.7528
2.5583,0.7531
2.5693,0.7537
2.5801,0.754
2.5905,0.7541
2.6011,0.754
2.6117,0.754
2.6224,0.7538
2.633,0.7537
2.6437,0.7537
2.6544,0.7535
2.6654,0.7535
2.6762,0.7533
2.6864,0.7526
2.6968,0.7519
2.7076,0.7514
2.7186,0.7513
2.7295,0.751
2.7399,0.7502
2.7504,0.7493
2.761,0.7486
2.7717,0.7479
2.7824,0.7472
2.793,0.7464
2.8038,0.7457
2.8147,0.745
2.8256,0.7444
2.8358,0.743
2.8462,0.7418
2.8569,0.741
2.8679,0.7402
2.8788,0.7394
2.8892,0.7383
2.8997,0.7371
2.9104,0.7359
2.921,0.7349
2.9317,0.7338
2.9423,0.7326
2.9531,0.7316
2.964,0.7308
2.9749,0.7297
2.9852,0.7284
2.9955,0.727
3.0063,0.7258
3.0172,0.7248
3.0281,0.724
3.0386,0.7227
3.0491,0.7213
3.0597,0.7203
3.0704,0.7191
3.0811,0.7182
3.0917,0.717
3.1024,0.7159
3.1133,0.715
3.1242,0.714
3.1297,0.7544