File: data/PrimaryData/V4_Resin/Tensile_test_8.csv
Displacement (mm),Load (kN)
0.0,-0.0568
0.0095,-0.0469
0.0195,-0.0373
0.0297,-0.0277
0.0401,-0.0186
0.0504,-0.0096
0.0608,-0.0009
0.0715,0.0082
0.0816,0.0162
0.0915,0.0239
0.1021,0.032
0.1128,0.0402
0.1229,0.0473
0.133,0.0541
0.1434,0.0608
0.1537,0.0669
0.1641,0.073
0.1749,0.079
0.1849,0.0839
0.1949,0.0884
0.2054,0.0932
0.2161,0.0977
0.2261,0.1012
0.2363,0.1042
0.2468,0.107
0.257,0.1079
0.2674,0.1064
0.2782,0.1095
0.2882,0.1122
0.2982,0.1148
0.3087,0.1179
0.3195,0.1158
0.3295,0.1223
0.3397,0.1281
0.3501,0.1333
0.3603,0.1384
0.3708,0.1432
0.3816,0.1487
0.3916,0.1531
0.4015,0.1576
0.4121,0.1625
0.4228,0.1674
0.4328,0.1717
0.443,0.1758
0.4534,0.18
0.4637,0.1841
0.4741,0.1883
0.4849,0.1926
0.4949,0.1963
0.5049,0.1996
0.5154,0.2035
0.5261,0.2075
0.5362,0.2109
0.5463,0.2141
0.5567,0.2176
0.567,0.2211
0.5774,0.2245
0.5882,0.2281
0.5983,0.2312
0.6082,0.2341
0.6187,0.2375
0.6295,0.2411
0.6395,0.2441
0.6497,0.247
0.6601,0.2502
0.6703,0.2533
0.6808,0.2565
0.6915,0.2601
0.7016,0.2629
0.7115,0.2657
0.7221,0.269
0.7329,0.2726
0.7429,0.2755
0.753,0.2784
0.7634,0.2817
0.7737,0.2848
0.7841,0.288
0.7948,0.2918
0.805,0.2949
0.8148,0.2975
0.8254,0.3007
0.8361,0.3041
0.8462,0.307
0.8564,0.3099
0.8667,0.3131
0.877,0.3161
0.8874,0.3193
0.8982,0.3228
0.9083,0.3259
0.9182,0.3287
0.9287,0.3322
0.9395,0.336
0.9495,0.3393
0.9597,0.3426
0.9701,0.3459
0.9804,0.3491
0.9907,0.3524
1.0015,0.3561
1.0116,0.3592
1.0215,0.3619
1.032,0.3656
1.0428,0.3696
1.0529,0.3727
1.063,0.3758
1.0734,0.3793
1.0837,0.3827
1.0941,0.386
1.1049,0.39
1.115,0.3932
1.1249,0.3959
1.1354,0.3993
1.1461,0.403
1.1562,0.4059
1.1664,0.4091
1.1767,0.4122
1.187,0.4154
1.1974,0.4186
1.2081,0.4222
1.2183,0.4255
1.2282,0.4283
1.2387,0.4316
1.2494,0.4354
1.2595,0.4384
1.2697,0.4415
1.2801,0.4448
1.2904,0.448
1.3007,0.4514
1.3114,0.4549
1.3217,0.4582
1.3316,0.4607
1.342,0.464
1.3528,0.4678
1.3629,0.4707
1.373,0.4737
1.3834,0.4769
1.3937,0.4801
1.4041,0.4833
1.4148,0.4868
1.425,0.4902
1.4349,0.4931
1.4453,0.4967
1.4561,0.5006
1.4662,0.5037
1.4764,0.5069
1.4867,0.5102
1.497,0.5135
1.5074,0.5167
1.5181,0.5203
1.5284,0.5236
1.5382,0.5263
1.5487,0.5296
1.5594,0.5333
1.5696,0.5363
1.5797,0.5393
1.5901,0.5425
1.6003,0.5456
1.6107,0.5487
1.6215,0.5523
1.6317,0.5553
1.6416,0.5579
1.652,0.5611
1.6628,0.5645
1.6729,0.5674
1.6831,0.5703
1.6934,0.5734
1.7037,0.5762
1.7141,0.5792
1.7247,0.5825
1.735,0.5853
1.7449,0.5878
1.7553,0.5907
1.7661,0.594
1.7763,0.5967
1.7864,0.5994
1.7967,0.6022
1.807,0.6049
1.8174,0.6078
1.8281,0.6108
1.8384,0.6136
1.8482,0.6158
1.8587,0.6185
1.8694,0.6216
1.8796,0.6241
1.8897,0.6265
1.9001,0.6292
1.9104,0.6317
1.9207,0.6342
1.9314,0.6371
1.9417,0.6396
1.9516,0.6416
1.962,0.6441
1.9727,0.6469
1.9829,0.6492
1.993,0.6515
2.0034,0.6538
2.0137,0.6559
2.024,0.6581
2.0347,0.6607
2.0451,0.6629
2.0549,0.6645
2.0653,0.6666
2.0761,0.669
2.0863,0.6709
2.0964,0.6727
2.1067,0.6745
2.117,0.6762
2.1274,0.6779
2.1381,0.6802
2.1484,0.6816
2.1582,0.6828
2.1686,0.6845
2.1794,0.6866
2.1896,0.6879
2.1997,0.6894
2.21,0.6908
2.2204,0.6921
2.2307,0.6933
2.2414,0.6947
2.2518,0.696
2.2616,0.6956
2.272,0.6943
2.2827,0.6966
2.293,0.6981
2.303,0.6995
2.3134,0.7011
2.3237,0.7024
2.334,0.7038
2.3447,0.7053
2.3551,0.7066
2.3649,0.7071
2.3753,0.7082
2.3861,0.7096
2.3962,0.7104
2.4064,0.711
2.4167,0.7118
2.427,0.7126
2.4374,0.7132
2.4481,0.7141
2.4585,0.7147
2.4682,0.7146
2.4786,0.7151
2.4894,0.7158
2.4997,0.716
2.5097,0.7159
2.52,0.716
2.5304,0.7161
2.5407,0.716
2.5514,0.7164
2.5618,0.7164
2.5716,0.7158
2.582,0.7157
2.5927,0.7158
2.6029,0.7155
2.6131,0.7149
2.6234,0.7145
2.6337,0.7142
2.644,0.7137
2.6547,0.7134
2.6651,0.7132
2.6749,0.7119
2.6853,0.7114
2.696,0.7111
2.7063,0.7104
2.7164,0.7095
2.7267,0.7087
2.737,0.7078
2.7474,0.7069
2.758,0.7064
2.7685,0.7056
2.7783,0.7044
2.7886,0.7032
2.7994,0.7027
2.8097,0.7018
2.8197,0.7005
2.8301,0.6994
2.8404,0.6984
2.8507,0.6974
2.8614,0.6966
2.8718,0.6956
2.8816,0.6942
2.892,0.6931
2.9027,0.6924
2.913,0.6913
2.9231,0.69
2.9334,0.6889
2.9437,0.6878
2.954,0.6866
2.9646,0.686
2.9752,0.6851
2.9849,0.6834
2.9953,0.6824
3.006,0.6817
3.0163,0.6806
3.0264,0.6792
3.0367,0.6782
3.047,0.6772
3.0564,0.7167