File: data/ReportRaw/Resin_TXT/V4_Resin/Tensile_Test_01.txt
Program Started: Tue, Jul 16, 2024	1:13:32 PM	System: µTS4
Test Notes:

User displacement limits active. Low limit -20.000E-3 m, high limit 20.000E-3 m.
User load limits active. Low limit -1.600E+3 N, high limit 1.600E+3 N.

No closed loop control sensors in this test.

Test Segments:
 1. Ramp in Drive Control, +5.00E-3m Amplitude, 10.00E-6 m/s Speed. Sampling at 20.000 Hz, Lowpass Filter Cutoff of 100.000 Hz

Specimen Thickness (m): 	1.550E-3
Specimen Width (m): 	1.910E-3
Specimen Diameter (m): 	0.000E+0
Specimen Area (m^2): 	2.960E-6
Specimen Length (m): 	5.000E-3

Test Started: Tue, Jul 16, 2024	1:37:54 PM
Time (s)	LCFS1600 (N)	LCW1600 (N)	ECATENC (m)	SpecTemp (C)	AirTemp (C)	OutletTemp (C)	JTemp1600 (C)	GTemp1600 (C)	CUR (A)	Ve (V)	Trigger (#)
0.0000000000E+0	0.0682859	0.00223728	-2.41821e-10	24.4964	24.4721	24.5207	32.7869	0.505608	0.0766752	10.1463	-1
2.15	2.88984	2.83568	2.11179e-05	24.489	24.47	24.508	32.7861	0.505441	0.158745	10.1468	-1
4.3	5.17785	5.178	4.26167e-05	24.5076	24.4823	24.533	32.7876	0.505727	0.13251	10.1469	-1
6.45	8.00185	8.11266	6.40842e-05	24.5015	24.4801	24.5229	32.7862	0.505107	0.121527	10.1469	-1
8.6	11.4391	11.4351	8.55681e-05	24.4924	24.4672	24.5177	32.7871	0.504608	0.185223	10.1467	-1
10.75	15.4819	15.3521	0.000107073	24.4933	24.4585	24.5281	32.7855	0.504806	0.147337	10.1468	-1
12.9	19.6422	19.5468	0.000128618	24.487	24.4571	24.5168	32.7855	0.5044	0.20607	10.1472	-1
15.05	23.7188	23.7162	0.00015006	24.4947	24.4664	24.5231	32.7874	0.505496	0.212235	10.1473	-1
17.2	27.864	27.8499	0.000171592	24.4858	24.47	24.5016	32.7868	0.505167	0.313452	10.1475	-1
19.35	31.5935	Inf	0.000193072	24.5082	24.4827	24.5336	32.7861	0.504725	0.249525	10.1474	-1
21.5	34.9778	Inf	0.000214567	24.4899	24.4601	24.5197	32.7873	0.504177	0.285014	10.1479	-1
23.65	37.8345	Inf	0.000236044	24.4782	24.4456	24.5108	32.787	0.504785	0.300442	10.1476	-1
25.8	41.1126	Inf	0.000257559	24.4998	24.4741	24.5255	32.7874	0.504269	0.261253	10.148	-1
27.95	44.9242	Inf	0.000279066	24.4953	24.4629	24.5278	32.7864	0.504887	0.227641	10.1479	-1
30.1	48.4659	Inf	0.000300557	24.4715	24.4409	24.502	32.7881	0.504818	0.226777	10.1483	-1
32.25	52.4779	Inf	0.000322046	24.493	24.4734	24.5127	32.7861	0.504602	0.32678	10.1478	-1
34.4	56.4175	Inf	0.00034356	24.4871	24.4724	24.5018	32.7873	0.505557	0.308823	10.1483	-1
36.55	60.4248	Inf	0.000365083	24.4852	24.4568	24.5136	32.7884	0.504624	0.323604	10.1479	-1
38.7	64.7721	Inf	0.00038654	24.501	24.4738	24.5282	32.7885	0.504596	0.394654	10.1479	-1
40.85	69.5125	Inf	0.000408037	24.4966	24.4694	24.5238	32.7881	0.505437	0.527417	10.1479	-1
43	74.2377	Inf	0.000429524	24.4851	24.4619	24.5083	32.788	0.504495	0.573097	10.148	-1
45.15	79.1148	Inf	0.000451009	24.5088	24.4915	24.526	32.7874	0.504069	0.607181	10.1482	-1
47.3	83.7542	Inf	0.000472499	24.5005	24.4731	24.5279	32.7875	0.503399	0.588646	10.1478	-1
49.45	88.6289	Inf	0.000494006	24.4762	24.443	24.5094	32.7894	0.50479	0.666134	10.1475	-1
51.6	93.3946	Inf	0.000515497	24.4919	24.4751	24.5087	32.789	0.504533	0.703658	10.1474	-1
53.75	98.2429	Inf	0.000537	24.4929	24.475	24.5109	32.7876	0.505049	0.685685	10.1474	-1
55.9	103.096	Inf	0.000558497	24.4681	24.4515	24.4848	32.7893	0.505883	0.72912	10.1476	-1
58.05	107.773	Inf	0.000579979	24.5009	24.4722	24.5296	32.7898	0.504697	0.823435	10.1473	-1
60.2	112.705	Inf	0.00060149	24.5048	24.4976	24.512	32.7887	0.504372	0.817225	10.1474	-1
62.35	117.471	Inf	0.000622994	24.4879	24.4606	24.5152	32.7899	0.505947	0.78775	10.1476	-1
64.5	121.993	Inf	0.000644472	24.5003	24.4704	24.5303	32.7877	0.505722	0.937727	10.147	-1
66.65	126.63	Inf	0.000665951	24.4864	24.4604	24.5125	32.7893	0.505432	0.878507	10.148	-1
68.8	130.855	Inf	0.000687465	24.4844	24.4644	24.5045	32.791	0.504118	0.834197	10.1474	-1
70.95	135.225	Inf	0.000708963	24.4911	24.4682	24.514	32.7885	0.504068	0.815355	10.1474	-1
73.1	139.057	Inf	0.000730398	24.4907	24.4684	24.5131	32.789	0.504661	0.701568	10.1474	-1
75.25	142.949	Inf	0.000751874	24.5002	24.4722	24.5282	32.7895	0.504103	0.757495	10.1475	-1
77.4	146.713	Inf	0.000773388	24.4895	24.4605	24.5185	32.7887	0.504397	0.838312	10.1474	-1
79.55	150.16	Inf	0.000794888	24.4989	24.4794	24.5183	32.7895	0.505447	0.842045	10.1478	-1
81.7	153.354	Inf	0.000816385	24.5006	24.4771	24.524	32.79	0.503831	0.867828	10.1475	-1
83.85	156.454	Inf	0.000837876	24.4933	24.4777	24.5088	32.7904	0.504635	1.03007	10.1476	-1
86	159.095	Inf	0.00085936	24.4951	24.4744	24.5157	32.7891	0.50396	0.977183	10.1479	-1
88.15	161.467	Inf	0.000880864	24.49	24.4726	24.5075	32.7905	0.504358	1.01879	10.1476	-1
90.3	163.554	Inf	0.000902342	24.5016	24.4703	24.5329	32.7908	0.504142	1.08399	10.1478	-1
92.45	165.272	Inf	0.000923849	24.4994	24.4825	24.5164	32.7915	0.505047	1.01166	10.1474	-1
94.6	166.864	Inf	0.00094535	24.4983	24.4757	24.5209	32.7902	0.505275	1.01776	10.1481	-1
96.75	168.247	Inf	0.000966899	24.5036	24.4781	24.5291	32.791	0.504271	1.02409	10.1481	-1
98.9	169.223	Inf	0.000988439	24.5076	24.4826	24.5326	32.791	0.504727	1.10566	10.1482	-1
101.05	169.835	Inf	0.00100993	24.4847	24.4709	24.4985	32.7892	0.503626	1.10322	10.1474	-1
103.2	170.375	Inf	0.00103143	24.4868	24.4645	24.5091	32.7904	0.505471	1.03759	10.1478	-1
105.35	170.514	Inf	0.00105293	24.513	24.4889	24.5371	32.7911	0.50411	1.07458	10.1477	-1
107.5	170.574	Inf	0.0010744	24.4912	24.4662	24.5162	32.7917	0.503822	1.11195	10.1477	-1
109.65	170.367	Inf	0.00109591	24.4988	24.4735	24.524	32.7914	0.503563	1.05624	10.1475	-1
111.8	169.778	Inf	0.00111734	24.4904	24.4634	24.5174	32.7914	0.505039	1.03253	10.1476	-1
113.95	169.386	Inf	0.00113888	24.4912	24.4644	24.5181	32.7914	0.504341	1.05699	10.1475	-1
116.1	168.585	Inf	0.00116036	24.4931	24.475	24.5111	32.7908	0.504561	1.04733	10.1475	-1
118.25	167.833	Inf	0.00118189	24.5129	24.502	24.5238	32.7925	0.506497	1.03289	10.1471	-1
120.4	167.079	Inf	0.00120339	24.488	24.4731	24.5029	32.7921	0.504496	0.958412	10.1479	-1
122.55	165.951	Inf	0.00122487	24.4918	24.463	24.5207	32.7923	0.504837	1.03573	10.1477	-1
124.7	164.908	Inf	0.00124635	24.5083	24.4668	24.5498	32.791	0.505299	1.09856	10.1473	-1
126.85	163.969	Inf	0.00126785	24.4996	24.4726	24.5266	32.7933	0.506225	1.07799	10.1472	-1
129	163.062	Inf	0.00128934	24.4889	24.4615	24.5163	32.7923	0.505499	1.07825	10.1474	-1
131.15	162.086	Inf	0.00131085	24.5048	24.4918	24.5179	32.7927	0.504898	1.00053	10.1471	-1
133.3	161.212	Inf	0.00133234	24.4994	24.4835	24.5154	32.7929	0.504978	1.05247	10.1473	-1
135.45	160.321	Inf	0.00135382	24.484	24.4612	24.5067	32.7916	0.504478	0.926348	10.1471	-1
137.6	159.564	Inf	0.00137532	24.499	24.4766	24.5213	32.7932	0.505218	0.932453	10.1475	-1
139.75	158.736	Inf	0.00139681	24.4874	24.4668	24.508	32.7939	0.504655	0.992186	10.1473	-1
141.9	158.123	Inf	0.00141831	24.4796	24.4686	24.4906	32.7936	0.504559	1.02087	10.1473	-1
144.05	157.67	Inf	0.00143983	24.5091	24.4875	24.5308	32.7923	0.505919	0.915313	10.1473	-1
146.2	156.928	Inf	0.00146132	24.4788	24.4499	24.5078	32.7928	0.504479	1.04559	10.1472	-1
148.35	156.393	Inf	0.00148278	24.4881	24.4624	24.5138	32.7937	0.504375	1.11222	10.1478	-1
150.5	155.943	Inf	0.0015043	24.4945	24.4835	24.5054	32.7929	0.504862	1.15758	10.1472	-1
152.65	155.519	Inf	0.00152579	24.4924	24.4694	24.5154	32.794	0.504818	1.07538	10.1474	-1
154.8	155.032	Inf	0.00154728	24.5077	24.4807	24.5346	32.7921	0.504848	0.996098	10.1471	-1
156.95	154.576	Inf	0.00156878	24.497	24.4788	24.5152	32.7944	0.504997	1.00677	10.1473	-1
159.1	154.224	Inf	0.00159027	24.4895	24.4719	24.5071	32.7956	0.505059	0.904362	10.1476	-1
161.25	153.808	Inf	0.00161172	24.478	24.4613	24.4947	32.7925	0.504633	0.847451	10.1474	-1
163.4	153.482	Inf	0.00163322	24.5063	24.4765	24.5361	32.7953	0.506249	0.860932	10.1477	-1
165.55	153.296	Inf	0.00165472	24.4997	24.4937	24.5057	32.7957	0.505044	0.86707	10.1476	-1
167.7	152.954	Inf	0.00167625	24.505	24.4861	24.5238	32.7945	0.50547	0.863597	10.1474	-1
169.85	152.7	Inf	0.00169771	24.5052	24.4807	24.5297	32.7938	0.50476	0.944063	10.1479	-1
172	152.652	Inf	0.00171922	24.4918	24.4813	24.5022	32.7948	0.505843	1.08549	10.1476	-1
174.15	152.54	Inf	0.00174067	24.4972	24.4823	24.5121	32.7951	0.50526	1.34724	10.1471	-1
176.3	152.418	Inf	0.00176217	24.5016	24.4889	24.5142	32.7947	0.505008	1.73544	10.1475	-1
178.45	152.468	Inf	0.00178367	24.4921	24.4771	24.5072	32.7945	0.505518	1.62593	10.1473	-1
180.6	152.336	Inf	0.00180514	24.5037	24.4916	24.5158	32.7955	0.505485	1.64815	10.1474	-1
182.75	152.38	Inf	0.00182665	24.4819	24.472	24.4919	32.7948	0.505406	1.69713	10.1475	-1
184.9	152.411	Inf	0.00184818	24.4882	24.4669	24.5095	32.7935	0.505988	1.80087	10.1475	-1
187.05	152.409	Inf	0.00186967	24.4914	24.4845	24.4983	32.7947	0.505881	1.80025	10.1472	-1
189.2	152.276	Inf	0.0018912	24.496	24.4813	24.5106	32.794	0.504472	1.92945	10.1473	-1
191.35	152.315	Inf	0.00191265	24.486	24.464	24.5079	32.7957	0.505193	1.93418	10.1477	-1
193.5	152.1	Inf	0.00193419	24.4901	24.4725	24.5077	32.7964	0.505718	1.84907	10.147	-1
195.65	152.085	Inf	0.00195569	24.4991	24.4786	24.5195	32.7952	0.505806	1.76837	10.1471	-1
197.8	152.267	Inf	0.00197719	24.4969	24.4728	24.5211	32.7955	0.506104	1.91629	10.1474	-1
199.95	152.328	Inf	0.00199867	24.4898	24.4803	24.4993	32.7957	0.50562	2.04967	10.147	-1
202.1	152.403	Inf	0.00202017	24.4832	24.4633	24.5032	32.796	0.506859	1.94796	10.147	-1
204.25	152.611	Inf	0.00204165	24.4911	24.4905	24.4918	32.795	0.505532	1.83568	10.1468	-1
206.4	152.807	Inf	0.00206323	24.5035	24.485	24.5221	32.7945	0.505527	1.76945	10.1472	-1
208.55	152.999	Inf	0.00208471	24.4849	24.459	24.5108	32.7955	0.505508	1.75811	10.1475	-1
210.7	153.214	Inf	0.00210618	24.4838	24.4459	24.5217	32.7963	0.505965	1.71908	10.1474	-1
212.85	153.451	Inf	0.00212764	24.5047	24.4826	24.5267	32.7951	0.505606	1.78986	10.1474	-1
215	153.744	Inf	0.00214918	24.4735	24.4567	24.4904	32.7951	0.506259	1.85343	10.1474	-1
217.15	154.037	Inf	0.00217067	24.5005	24.4777	24.5234	32.7964	0.506151	1.89585	10.1471	-1
219.3	154.331	Inf	0.00219217	24.4907	24.4739	24.5074	32.7973	0.506335	1.74773	10.1473	-1
221.45	154.487	Inf	0.00221367	24.4768	24.4557	24.4978	32.797	0.506786	1.75687	10.1469	-1
223.6	154.698	Inf	0.00223515	24.5012	24.4746	24.5278	32.7961	0.506175	1.71824	10.1473	-1
225.75	154.906	Inf	0.00225665	24.4873	24.4643	24.5103	32.7947	0.506723	1.72784	10.1474	-1
227.9	155.092	Inf	0.00227813	24.4788	24.4515	24.5061	32.7985	0.505654	1.7243	10.1471	-1
230.05	155.278	Inf	0.00229962	24.4991	24.4872	24.5111	32.7968	0.505544	1.67034	10.1464	-1
232.2	-1.75584	-1.74031	0.00232072	24.5012	24.4805	24.522	32.7965	0.506375	-0.197705	10.1455	-1
234.35	-1.91025	-1.89702	0.00234265	24.4919	24.4725	24.5114	32.7975	0.506234	0.56751	10.1451	-1
235.2	-1.94785	-1.90619	0.00235112	24.5071	24.4897	24.5245	32.7971	0.507138	0.544001	10.1452	-1