File: data/ReportRaw/Resin_TXT/V4_Resin/Tensile_Test_02.txt
Program Started: Tue, Jul 16, 2024	1:13:32 PM	System: µTS4
Test Notes:

User displacement limits active. Low limit -20.000E-3 m, high limit 20.000E-3 m.
User load limits active. Low limit -1.600E+3 N, high limit 1.600E+3 N.

No closed loop control sensors in this test.

Test Segments:
 1. Ramp in Drive Control, +5.00E-3m Amplitude, 10.00E-6 m/s Speed. Sampling at 20.000 Hz, Lowpass Filter Cutoff of 100.000 Hz

Specimen Thickness (m): 	1.550E-3
Specimen Width (m): 	1.910E-3
Specimen Diameter (m): 	0.000E+0
Specimen Area (m^2): 	2.960E-6
Specimen Length (m): 	5.000E-3

Test Started: Tue, Jul 16, 2024	1:43:28 PM
Time (s)	LCFS1600 (N)	LCW1600 (N)	ECATENC (m)	SpecTemp (C)	AirTemp (C)	OutletTemp (C)	JTemp1600 (C)	GTemp1600 (C)	CUR (A)	Ve (V)	Trigger (#)
0.0000000000E+0	-0.291592	-0.329273	6.43149e-16	24.5218	24.5063	24.5373	32.8019	0.508303	0.0628645	10.1453	-1
2.1	3.61308	3.66326	1.93678e-05	24.5068	24.4829	24.5306	32.8014	0.507915	0.104463	10.1455	-1
4.2	6.71771	6.73525	4.03559e-05	24.5044	24.508	24.5008	32.8006	0.506521	0.190213	10.1462	-1
6.3	10.1567	10.1862	6.13671e-05	24.505	24.4966	24.5134	32.8013	0.505739	0.234301	10.146	-1
8.4	14.0993	13.9571	8.23718e-05	24.5031	24.4842	24.522	32.8019	0.506537	0.221355	10.1466	-1
10.5	17.9561	18.0508	0.000103326	24.5113	24.4935	24.529	32.8018	0.506125	0.226353	10.1466	-1
12.6	22.5299	22.5242	0.000124282	24.5073	24.5022	24.5124	32.8013	0.50633	0.266866	10.1469	-1
14.7	27.0797	Inf	0.000145282	24.5003	24.4782	24.5225	32.8014	0.505395	0.278603	10.1471	-1
16.8	31.6479	Inf	0.000166283	24.5001	24.4881	24.5122	32.8003	0.505461	0.22838	10.1472	-1
18.9	35.7861	Inf	0.000187301	24.5021	24.4893	24.5149	32.8016	0.505514	0.275644	10.1473	-1
21	39.424	Inf	0.000208282	24.5045	24.4957	24.5132	32.8009	0.505571	0.305561	10.1473	-1
23.1	42.821	Inf	0.000229276	24.4954	24.4789	24.5118	32.8004	0.505974	0.348277	10.1472	-1
25.2	46.3893	Inf	0.000250268	24.4833	24.465	24.5016	32.8005	0.506332	0.315964	10.1471	-1
27.3	50.2071	Inf	0.000271246	24.5042	24.4832	24.5252	32.8016	0.505223	0.348974	10.1471	-1
29.4	54.0118	Inf	0.000292254	24.5031	24.4993	24.5068	32.8014	0.506026	0.372203	10.1471	-1
31.5	57.7013	Inf	0.000313239	24.5183	24.5075	24.5291	32.801	0.505591	0.347495	10.1471	-1
33.6	61.8756	Inf	0.000334262	24.5073	24.4926	24.522	32.8022	0.506268	0.329005	10.147	-1
35.7	65.7664	Inf	0.000355261	24.5076	24.4823	24.5328	32.8018	0.504828	0.291566	10.1475	-1
37.8	70.0875	Inf	0.000376264	24.5148	24.5111	24.5185	32.8007	0.505737	0.361194	10.1472	-1
39.9	74.065	Inf	0.000397299	24.5026	24.493	24.5122	32.7999	0.505991	0.401288	10.1471	-1
42	78.2739	Inf	0.000418306	24.509	24.5022	24.5158	32.8016	0.505201	0.444688	10.1469	-1
44.1	82.8288	Inf	0.000439287	24.5108	24.4926	24.529	32.8008	0.506053	0.471287	10.1471	-1
46.2	87.2132	Inf	0.000460266	24.5121	24.501	24.5232	32.8022	0.505426	0.602771	10.147	-1
48.3	91.3871	Inf	0.000481253	24.5114	24.4904	24.5325	32.8014	0.504982	0.585611	10.1472	-1
50.4	95.7322	Inf	0.000502278	24.5146	24.4867	24.5425	32.8012	0.505595	0.520718	10.1471	-1
52.5	100.548	Inf	0.000523283	24.5013	24.4798	24.5227	32.8021	0.504968	0.546841	10.1475	-1
54.6	105.553	Inf	0.000544285	24.4956	24.482	24.5092	32.8015	0.505151	0.618692	10.1473	-1
56.7	110.391	Inf	0.000565297	24.5057	24.494	24.5175	32.8011	0.505878	0.66916	10.1471	-1
58.8	115.009	Inf	0.000586263	24.4919	24.4704	24.5134	32.8001	0.504644	0.630935	10.1477	-1
60.9	119.793	Inf	0.000607253	24.5047	24.484	24.5255	32.8024	0.504886	0.731753	10.1474	-1
63	124.112	Inf	0.000628259	24.5057	24.5019	24.5095	32.8028	0.504964	0.786381	10.1468	-1
65.1	128.245	Inf	0.000649238	24.5023	24.4925	24.5121	32.8006	0.506749	0.803128	10.147	-1
67.2	132.298	Inf	0.000670238	24.5075	24.5023	24.5128	32.8033	0.505293	0.767287	10.1474	-1
69.3	136.084	Inf	0.000691215	24.5143	24.5051	24.5236	32.803	0.505886	0.701045	10.1474	-1
71.4	139.931	Inf	0.000712248	24.499	24.4845	24.5136	32.8018	0.504777	0.803065	10.1474	-1
73.5	143.276	Inf	0.000733251	24.4888	24.4735	24.504	32.8023	0.504194	0.822762	10.1475	-1
75.6	146.615	Inf	0.000754208	24.5046	24.4898	24.5194	32.8026	0.505069	0.878369	10.1476	-1
77.7	149.862	Inf	0.000775238	24.4878	24.4665	24.509	32.8032	0.506432	0.953194	10.1469	-1
79.8	152.575	Inf	0.000796225	24.5112	24.4927	24.5297	32.803	0.505811	1.08781	10.1471	-1
81.9	155.161	Inf	0.000817186	24.5048	24.4767	24.5328	32.8048	0.505364	1.04616	10.1475	-1
84	157.552	Inf	0.000838206	24.5003	24.4844	24.5162	32.8023	0.506077	0.988485	10.1469	-1
86.1	159.487	Inf	0.000859195	24.5026	24.4959	24.5093	32.803	0.505513	1.05426	10.1471	-1
88.2	161.337	Inf	0.000880174	24.4906	24.4793	24.502	32.8024	0.504766	1.00818	10.1471	-1
90.3	162.657	Inf	0.000901191	24.5004	24.4835	24.5173	32.8037	0.506038	1.06871	10.1467	-1
92.4	163.784	Inf	0.000922211	24.5068	24.4807	24.5328	32.802	0.505778	0.968772	10.1472	-1
94.5	164.454	Inf	0.000943194	24.4834	24.4593	24.5075	32.8039	0.506243	1.03007	10.1472	-1
96.6	164.949	Inf	0.000964177	24.4984	24.4994	24.4974	32.8031	0.505404	1.04549	10.1469	-1
98.7	165.248	Inf	0.0009852	24.5128	24.5023	24.5234	32.8058	0.505951	0.992483	10.147	-1
100.8	165.084	Inf	0.00100616	24.5137	24.5049	24.5225	32.8025	0.506188	0.960761	10.1474	-1
102.9	164.802	Inf	0.00102716	24.516	24.4976	24.5345	32.804	0.505627	0.919627	10.148	-1
105	164.355	Inf	0.00104816	24.4985	24.4718	24.5251	32.8035	0.50643	0.934209	10.1475	-1
107.1	163.847	Inf	0.00106913	24.4976	24.4723	24.523	32.8045	0.505859	0.919041	10.1474	-1
109.2	162.99	Inf	0.00109011	24.4996	24.4808	24.5184	32.8025	0.50615	0.948938	10.1471	-1
111.3	162.059	Inf	0.00111109	24.4982	24.4818	24.5146	32.804	0.506316	1.02989	10.1478	-1
113.4	161.209	Inf	0.00113207	24.5057	24.4745	24.5368	32.8036	0.506431	1.14133	10.1473	-1
115.5	160.116	Inf	0.00115307	24.5045	24.4969	24.5121	32.8033	0.50667	1.15957	10.1473	-1
117.6	159.194	Inf	0.00117408	24.4924	24.4728	24.5119	32.8034	0.505662	1.11067	10.1469	-1
119.7	158.101	Inf	0.00119506	24.5067	24.4858	24.5277	32.8024	0.506905	1.15613	10.1473	-1
121.8	157.095	Inf	0.00121605	24.4991	24.4903	24.5079	32.8017	0.506386	1.11461	10.1473	-1
123.9	156.057	Inf	0.00123705	24.5033	24.4885	24.5181	32.8037	0.506681	1.12833	10.1468	-1
126	154.984	Inf	0.00125805	24.5053	24.503	24.5077	32.8047	0.505573	1.0427	10.1472	-1
128.1	154.064	Inf	0.00127907	24.491	24.4702	24.5117	32.8033	0.506954	0.964234	10.1468	-1
130.2	153.129	Inf	0.0013001	24.5006	24.4987	24.5024	32.8051	0.506778	0.952316	10.1468	-1
132.3	152.225	Inf	0.00132111	24.5007	24.4861	24.5152	32.8034	0.505096	0.958237	10.147	-1
134.4	151.475	Inf	0.0013421	24.5149	24.5068	24.523	32.8044	0.506491	0.909802	10.1468	-1
136.5	150.629	Inf	0.00136307	24.4922	24.4734	24.511	32.8044	0.506385	0.971356	10.1469	-1
138.6	150.081	Inf	0.00138407	24.5041	24.4921	24.5161	32.8043	0.506787	1.04241	10.1469	-1
140.7	149.351	Inf	0.00140508	24.493	24.4914	24.4947	32.8043	0.505903	0.979403	10.147	-1
142.8	148.836	Inf	0.00142609	24.5006	24.4821	24.519	32.8037	0.505989	0.953735	10.1473	-1
144.9	148.474	Inf	0.00144707	24.5021	24.4893	24.515	32.8034	0.506732	1.08872	10.147	-1
147	147.96	Inf	0.00146808	24.4983	24.4813	24.5153	32.8046	0.506977	1.17811	10.1474	-1
149.1	147.632	Inf	0.00148908	24.4946	24.4888	24.5004	32.8049	0.506122	1.21434	10.1474	-1
151.2	147.334	Inf	0.00151006	24.5001	24.4982	24.502	32.8057	0.506689	1.40734	10.1472	-1
153.3	147.255	Inf	0.00153106	24.5	24.4792	24.5208	32.8048	0.506285	1.38115	10.1472	-1
155.4	146.841	Inf	0.00155203	24.4942	24.4842	24.5041	32.8043	0.506827	1.58927	10.147	-1
157.5	146.445	Inf	0.00157302	24.4914	24.4755	24.5073	32.8058	0.506279	1.81401	10.147	-1
159.6	146.289	Inf	0.00159404	24.4839	24.4874	24.4804	32.807	0.50716	1.72761	10.1468	-1
161.7	146.109	Inf	0.00161503	24.4901	24.4664	24.5138	32.8025	0.506844	1.8733	10.147	-1
163.8	145.724	Inf	0.00163605	24.5002	24.4884	24.512	32.8043	0.50676	1.81739	10.1472	-1
165.9	145.531	Inf	0.00165704	24.48	24.4566	24.5035	32.8047	0.507228	1.92969	10.1471	-1
168	145.472	Inf	0.00167803	24.4956	24.4842	24.5069	32.804	0.506226	1.82977	10.1471	-1
170.1	145.509	Inf	0.00169902	24.5042	24.4818	24.5266	32.8041	0.50698	1.99376	10.1471	-1
172.2	145.409	Inf	0.00172002	24.4984	24.4825	24.5142	32.8038	0.507538	2.01361	10.1472	-1
174.3	145.351	Inf	0.00174098	24.4885	24.4637	24.5132	32.806	0.507933	1.85177	10.147	-1
176.4	145.348	Inf	0.00176202	24.5047	24.4975	24.5118	32.8038	0.50713	1.69279	10.1473	-1
178.5	145.519	Inf	0.001783	24.4962	24.489	24.5034	32.8047	0.507228	1.72412	10.1472	-1
180.6	145.602	Inf	0.00180402	24.5083	24.4907	24.5259	32.806	0.506569	1.80223	10.1475	-1
182.7	145.752	Inf	0.00182502	24.4848	24.4823	24.4873	32.8056	0.507289	1.74691	10.1472	-1
184.8	145.989	Inf	0.001846	24.5001	24.484	24.5161	32.8063	0.506769	1.9235	10.1473	-1
186.9	146.027	Inf	0.001867	24.4959	24.469	24.5229	32.8048	0.508197	1.93249	10.1475	-1
189	146.173	Inf	0.00188796	24.493	24.4881	24.4979	32.8043	0.507853	1.89321	10.1476	-1
191.1	146.462	Inf	0.00190899	24.511	24.4987	24.5233	32.8057	0.506492	1.78996	10.1471	-1
193.2	146.426	Inf	0.00192991	24.4849	24.4667	24.5031	32.8048	0.507662	1.64216	10.1472	-1
195.3	146.542	Inf	0.00195096	24.4885	24.4933	24.4838	32.8065	0.506867	1.7466	10.1471	-1
197.4	146.678	Inf	0.00197193	24.4937	24.4797	24.5078	32.805	0.508435	1.69968	10.1472	-1
199.5	146.876	Inf	0.00199292	24.495	24.4704	24.5196	32.8033	0.507896	1.7159	10.1476	-1
201.6	146.921	Inf	0.00201391	24.5029	24.4909	24.515	32.8048	0.505982	1.67201	10.1474	-1
203.7	147.092	Inf	0.00203488	24.5068	24.4877	24.5259	32.8057	0.507222	1.71839	10.1471	-1
205.8	147.235	Inf	0.00205589	24.5119	24.505	24.5188	32.8063	0.507767	1.77905	10.1474	-1
207.9	147.451	Inf	0.00207692	24.5142	24.5006	24.5278	32.8052	0.508381	1.73078	10.1472	-1
210	147.5	Inf	0.00209788	24.5131	24.4987	24.5274	32.8057	0.507371	1.64079	10.147	-1
212.1	147.716	Inf	0.00211888	24.5001	24.4809	24.5193	32.8053	0.508143	1.61533	10.147	-1
214.2	148.005	Inf	0.00213989	24.5025	24.4843	24.5207	32.8051	0.50756	1.59565	10.1474	-1
216.3	148.261	Inf	0.00216088	24.4944	24.4834	24.5054	32.8053	0.508259	1.45925	10.1477	-1
218.4	148.404	Inf	0.00218193	24.4928	24.4853	24.5004	32.8051	0.507313	1.49986	10.1473	-1
220.5	148.634	Inf	0.00220292	24.4988	24.4888	24.5088	32.8046	0.507222	1.40785	10.1471	-1
222.6	148.734	Inf	0.00222389	24.4977	24.4842	24.5111	32.8056	0.508326	1.41702	10.147	-1
224.7	149.059	Inf	0.0022449	24.4899	24.4829	24.4968	32.8052	0.508148	1.28546	10.1475	-1
226.8	149.214	Inf	0.00226589	24.4827	24.4767	24.4888	32.8065	0.508105	1.21207	10.1474	-1
228.9	149.153	Inf	0.00228689	24.4825	24.473	24.492	32.8057	0.507647	1.18725	10.1473	-1
231	-4.82743	-4.4141	0.00230789	24.4917	24.4768	24.5065	32.8064	0.509011	0.569468	10.1458	-1
232.35	-4.76599	-4.41359	0.00232138	24.4966	24.4957	24.4974	32.8066	0.508429	0.667836	10.1457	-1