File: data/PrimaryData/Unknown_Resin/Tensile_test_3.csv
Displacement,Load
-5.0307e-17,-0.206812
1.02451e-05,3.43281
2.17737e-05,6.72184
3.3263e-05,9.45734
4.47722e-05,11.8087
5.62732e-05,13.3551
6.77475e-05,14.2676
7.92373e-05,15.8903
9.07713e-05,18.3989
0.000102262,19.652
0.000113767,20.2377
0.000125236,20.2576
0.000136764,20.4027
0.000148235,20.4129
0.000159749,20.4478
0.000171242,20.4344
0.000182751,20.5072
0.000194224,20.5922
0.00020574,20.9782
0.000217235,21.4855
0.000228711,22.4583
0.000240254,23.6585
0.000251734,24.2274
0.000263213,24.5256
0.000274732,24.901
0.000286217,25.2327
0.0002977,25.4247
0.000309195,25.6222
0.000320695,25.8084
0.000332217,25.9015
0.000343678,26.151
0.000355208,26.2571
0.000366689,26.3856
0.000378213,26.3988
0.000389679,26.3914
0.000401198,26.364
0.000412667,26.3968
0.000424192,26.4142
0.00043568,26.3938
0.000447185,26.4252
0.000458686,26.4036
0.000470135,26.3776
0.000481635,26.3437
0.000493113,26.4512
0.000504621,26.317
0.00051611,26.4357
0.000527603,26.3926
0.000539103,26.3334
0.000550596,26.3692
0.000562093,26.3518
0.000573606,26.3525
0.000585093,26.309
0.000596603,26.4942
0.000608082,26.4101
0.000619589,26.2877
0.000631064,26.4179
0.000642591,26.3942
0.000654077,26.4331
0.00066559,26.3793
0.000677058,26.4387
0.000688582,26.3541
0.000700054,26.5135
0.000711587,26.4529
0.000723096,26.4778
0.000734588,26.4447
0.000746049,26.3639
0.000757573,26.4193
0.000769109,26.3615
0.000780584,26.4512
0.000792059,26.382
0.000803598,26.3912
0.000815103,26.4057
0.000826588,26.4127
0.000838091,26.3779
0.000849592,26.3198
0.000861084,26.4116
0.000872578,26.4267
0.000884109,26.3789
0.000895588,26.5792
0.000907084,26.3464
0.000918566,26.4625
0.000930075,26.4634
0.000941569,26.4429
0.00095307,26.4507
0.000964575,26.4614
0.000976068,26.4476
0.000987551,26.4145
0.000999074,26.3501
0.00101057,26.4153
0.0010221,26.3489
0.0010336,26.3959
0.00104514,26.4611
0.00105662,26.3765
0.00106813,26.4113
0.0010796,26.3871
0.00109112,26.4152
0.00110259,26.4311
0.00111411,26.5329
0.00112558,26.4273
0.00113711,26.3311
0.00114859,26.2895
0.00116008,26.4274
0.00117155,26.406
0.00118309,26.3074
0.00119458,26.4401
0.00120608,26.3589
0.00121758,26.3738
0.00122907,26.2915
0.00124057,26.4161
0.00125205,26.5194
0.00126352,26.3656
0.00127504,26.3579
0.00128657,26.4447
0.00129807,26.3963
0.00130958,26.3802
0.00132107,26.4054
0.00133251,26.385
0.00134403,26.5468
0.00135551,26.4363
0.00136706,26.4578
0.00137857,26.4638
0.00138998,26.4084
0.00140149,26.4553
0.00141298,26.427
0.00142448,26.4217
0.00143597,26.3857
0.00144752,26.422
0.00145897,26.4578
0.00147048,26.3841
0.00148196,26.4229
0.00149346,26.4503
0.00150495,26.4509
0.00151646,26.5042
0.00152795,26.4958
0.00153945,26.5282
0.00155094,26.4788
0.00156246,26.425
0.00157395,26.5094
0.00158543,26.5756
0.00159694,26.5407
0.00160843,26.6133
0.00161993,26.7129
0.00163142,27.0345
0.00164293,27.2725
0.00165445,27.6219
0.00166599,27.9187
0.0016774,28.4039
0.00168895,28.7613
0.00170041,29.3145
0.00171196,29.6382
0.00172344,30.2251
0.00173497,30.8762
0.00174645,31.3387
0.00175797,31.985
0.00176946,32.6749
0.00178094,33.184
0.00179245,33.7131
0.00180396,34.2664
0.00181544,34.7773
0.00182695,35.3792
0.00183843,35.9945
0.00184994,36.6134
0.00186143,37.1607
0.00187294,37.6829
0.00188444,38.3441
0.00189592,39.0824
0.00190744,40.066
0.00191892,41.0219
0.00193042,42.1362
0.00194194,43.2051
0.00195343,44.3173
0.0019649,45.5324
0.00197644,46.8827
0.00198791,48.1073
0.00199944,49.3538
0.00201089,50.5566
0.00202241,51.8427
0.00203389,53.1423
0.00204539,54.479
0.00205687,55.7701
0.00206841,57.0992
0.00207988,58.2964
0.0020914,59.5808
0.00210289,60.8773
0.00211438,62.3351
0.00212587,63.6162
0.00213739,64.8781
0.00214888,66.2436
0.00216036,67.5988
0.00217186,68.7947
0.00218339,70.1273
0.00219484,71.1151
0.00220637,72.1299
0.00221784,73.129
0.00222938,74.1781
0.00224086,75.2095
0.00225237,76.1041
0.00226386,76.8312
0.00227528,77.929
0.00228684,79.075
0.00229829,80.053
0.00230982,80.8112
0.00232131,81.7266
0.00233279,82.7389
0.00234429,83.8886
0.00235578,84.9088
0.00236726,86.1885
0.00237877,87.2664
0.00239028,89.1169
0.00240177,90.3891
0.00241327,91.8325
0.00242477,92.864
0.00243626,93.9564
0.00244776,95.3178
0.00245925,96.5013
0.00247077,97.8183
0.00248225,98.8931
0.00249375,99.9087
0.00250523,101.004
0.00251674,102.211
0.00252823,103.116
0.00253973,103.788
0.00255123,104.793
0.00256275,106.049
0.00257424,106.982
0.00258574,108.04
0.00259722,109.01
0.00260876,110.073
0.00262025,110.961
0.00263174,111.778
0.00264324,112.704
0.00265478,113.669
0.00266628,114.387
0.00267775,115.189
0.00268928,115.773
0.00270076,116.377
0.00271228,116.997
0.00272374,117.613
0.00273528,118.095
0.00274675,118.462
0.00275825,118.758
0.00276974,119.283
0.00278124,119.631
0.00279273,120.06
0.00280424,120.318
0.00281573,120.351
0.00282723,120.745
0.00283872,120.834
0.00285022,120.856
0.00286175,120.881
0.00287322,120.697
0.00288472,120.828
0.00289623,120.627
0.00290773,120.773
0.00291919,120.634
0.0029307,120.612
0.00294219,120.509
0.00295372,120.368
0.0029652,120.207
0.00297668,120.072
0.00298821,119.888
0.00299972,119.624
0.00301118,119.507
0.00302271,119.26
0.00303418,119.153
0.00304571,118.851
0.00305719,118.646
0.00306868,118.479
0.00308015,118.245
0.0030917,118.093
0.00310316,117.919
0.00311469,117.845
0.00312615,117.801
0.00313769,117.694
0.00314918,117.394
0.00316065,117.308
0.00317214,117.175
0.00318365,117.117
0.00319517,116.828
0.00320666,116.556
0.00321815,116.303
0.00322964,116.143
0.00324111,116.007
0.00325259,115.558
0.00326409,115.278
0.00327559,115.13
0.00328707,114.657
0.00329858,114.305
0.00331007,113.754
0.00332157,113.266
0.00333309,112.444
0.00334457,26.5447
0.00335606,26.5469
0.00336456,26.547