File: data/PrimaryData/Unknown_Resin/Tensile_test_5.csv
Displacement,Load
-2.57587e-11,0.0502537
6.78287e-06,0.306958
1.4308e-05,0.502866
2.1771e-05,0.651028
2.92801e-05,0.919515
3.67764e-05,1.17461
4.42719e-05,1.4813
5.17745e-05,1.6434
5.92775e-05,1.99924
6.67532e-05,2.20744
7.42596e-05,2.52123
8.17821e-05,2.78938
8.92467e-05,3.18777
9.67645e-05,3.41825
0.000104278,3.80281
0.000111754,4.39784
0.000119247,4.63175
0.000126763,5.08531
0.000134256,5.25153
0.000141745,5.8497
0.000149252,6.28132
0.000156744,6.75181
0.000164242,7.20354
0.000171742,7.77399
0.000179248,8.33925
0.000186738,8.97005
0.00019426,9.65015
0.000201772,10.0284
0.000209255,10.6324
0.000216728,11.2374
0.000224278,11.8689
0.000231789,12.4253
0.00023929,13.119
0.000246791,13.8169
0.000254281,14.3146
0.000261781,14.9653
0.000269276,15.6522
0.000276789,16.2291
0.000284262,17.0219
0.000291781,17.6349
0.000299271,18.184
0.000306772,18.8352
0.000314294,19.6719
0.000321804,20.5343
0.000329268,21.2525
0.000336769,22.0745
0.000344278,22.89
0.000351788,23.6859
0.000359257,24.4965
0.000366765,25.3415
0.000374286,26.1526
0.000381758,26.9679
0.00038928,28.0009
0.000396778,28.6605
0.000404239,29.2314
0.000411775,30.0649
0.000419281,30.9247
0.000426738,31.5412
0.000434254,32.4234
0.000441764,33.2617
0.000449247,34.1773
0.000456744,35.0016
0.000464234,35.6867
0.00047172,36.4668
0.000479236,37.3536
0.00048674,38.0682
0.000494251,38.9834
0.000501734,39.7852
0.000509239,40.4212
0.00051673,41.1472
0.000524227,41.7763
0.000531741,42.3919
0.000539236,43.2226
0.000546707,43.8615
0.00055421,44.6465
0.000561726,45.3635
0.000569228,46.1622
0.000576727,47.0719
0.000584221,47.6228
0.00059172,48.1545
0.000599232,49.0089
0.000606728,49.7279
0.000614191,50.6099
0.000621715,51.5643
0.000629222,52.5143
0.000636718,53.4409
0.0006442,54.2296
0.000651698,54.9637
0.000659192,55.9189
0.000666692,56.8154
0.000674208,57.8687
0.000681702,58.7693
0.000689148,59.796
0.000696693,60.7124
0.000704193,61.587
0.000711694,62.544
0.00071919,63.633
0.000726682,64.718
0.000734192,65.7529
0.00074169,66.7202
0.000749175,67.611
0.00075668,68.6357
0.000764169,69.5736
0.000771673,70.4849
0.000779174,71.5641
0.00078664,72.4947
0.00079418,73.5099
0.00080168,74.5971
0.000809174,75.4834
0.000816688,76.5459
0.000824167,77.4422
0.00083163,78.3986
0.000839172,79.3966
0.000846676,80.3421
0.000854145,81.1218
0.000861644,82.0832
0.000869152,82.857
0.000876647,83.7697
0.000884138,84.5715
0.000891651,85.3412
0.000899088,86.0687
0.000906658,86.9465
0.000914141,87.8209
0.000921598,88.3381
0.00092912,89.1727
0.00093663,89.8079
0.000944089,90.5027
0.000951591,90.9743
0.000959088,91.6787
0.000966582,92.2457
0.000974067,92.778
0.000981582,93.375
0.00098909,93.8562
0.000996561,94.1632
0.00100406,94.5894
0.00101157,95.079
0.00101908,95.3021
0.00102655,95.7303
0.00103408,96.0362
0.00104156,96.3414
0.00104906,96.5858
0.00105657,96.8977
0.00106404,97.0774
0.00107156,97.2395
0.00107906,97.3767
0.00108655,97.6243
0.00109405,97.521
0.00110154,97.6113
0.00110905,97.6984
0.00111653,97.7017
0.00112408,97.8088
0.00113159,97.8213
0.00113905,97.6857
0.00114656,97.7065
0.00115413,97.684
0.00116159,97.4691
0.00116908,97.3727
0.00117659,97.3584
0.00118408,97.1584
0.00119158,97.0457
0.0011991,96.9664
0.0012066,96.8442
0.00121408,96.4796
0.00122158,96.4597
0.00122908,96.4627
0.00123657,96.4159
0.00124407,96.3096
0.00125158,96.1174
0.00125905,96.0364
0.00126658,95.932
0.00127408,95.8693
0.00128159,95.6884
0.00128906,95.6865
0.00129657,95.5111
0.00130406,95.3699
0.00131154,95.1935
0.00131907,94.9884
0.00132656,94.6931
0.00133405,94.6198
0.00134155,94.4114
0.00134905,94.3311
0.00135654,93.875
0.00136406,93.7668
0.00137154,93.6169
0.00137903,93.4015
0.00138656,93.2644
0.00139405,93.1917
0.00140152,92.9322
0.00140906,92.7564
0.00141654,92.6052
0.00142405,92.4839
0.00143152,92.5231
0.00143903,92.3799
0.00144652,92.2063
0.00145402,92.2062
0.00146155,92.2618
0.00146906,91.986
0.00147651,91.9389
0.00148405,91.7652
0.00149153,91.7626
0.001499,91.6293
0.00150653,91.5389
0.00151401,91.5329
0.00152152,91.4197
0.00152903,91.4299
0.00153653,91.3196
0.00154401,91.1924
0.00155152,91.1985
0.00155903,91.1417
0.0015665,91.168
0.00157401,91.1815
0.00158149,91.0979
0.00158898,90.9518
0.0015965,91.0152
0.00160402,90.9076
0.00161148,90.9929
0.00161898,90.8347
0.00162651,90.9069
0.00163401,90.8286
0.00164146,90.8783
0.00164899,90.7616
0.00165649,90.7508
0.00166397,90.7094
0.00167148,90.7377
0.00167901,90.79
0.00168647,90.6955
0.00169399,90.7173
0.0017015,90.7565
0.00170899,90.7301
0.00171648,90.7089
0.00172398,90.7549
0.00173147,90.6939
0.00173897,90.7733
0.00174649,90.7465
0.00175394,90.7562
0.00176148,90.8376
0.00176898,90.9871
0.00177643,90.9699
0.00178396,90.865
0.00179146,91.0007
0.00179897,91.0038
0.00180646,90.8942
0.00181397,91.0919
0.00182145,91.06
0.0018289,91.1076
0.0018364,91.2717
0.00184393,91.2422
0.00185139,91.2383
0.00185891,91.2221
0.00186638,91.302
0.00187389,91.2939
0.00188138,91.3475
0.0018889,91.4762
0.00189637,91.5829
0.00190387,91.535
0.00191139,91.6383
0.00191889,91.6888
0.00192638,91.8897
0.00193388,91.9187
0.00194138,91.9171
0.00194887,92.0836
0.00195638,92.1434
0.00196387,92.1784
0.00197135,92.2289
0.00197886,92.2621
0.00198639,92.2927
0.00199387,92.3985
0.00200133,92.4715
0.00200887,92.5777
0.00201636,92.5552
0.00202385,92.6357
0.00203136,92.7173
0.00203885,92.7613
0.00204634,92.8104
0.0020539,92.8643
0.00206133,92.9717
0.00206883,92.9921
0.00207634,93.1428
0.0020839,93.1504
0.00209138,93.0469
0.00209891,92.972
0.00210633,93.0654
0.00211387,92.9652
0.00212138,92.9454
0.00212888,92.9892
0.00213638,93.1189
0.00214387,93.0128
0.00215137,92.9452
0.0021589,92.9711
0.00216635,92.9318
0.00217385,92.9837
0.00218138,92.9144
0.00218885,0.0232248
0.00219639,-0.0485934
0.0022039,0.011725
0.00221134,-0.0368729
0.00221885,-0.0487057
0.00222638,-0.038263
0.00223386,-0.0714585
0.00224135,-0.0812604
0.00224686,-0.0141523