File: data/PrimaryData/Unknown_Resin/Tensile_test_6.csv
Displacement,Load
-3.40439e-16,-0.0371654
2.7328e-06,0.368321
6.71493e-06,1.03916
1.0729e-05,1.17168
1.47323e-05,1.25817
1.87046e-05,1.51661
2.27243e-05,1.64282
2.6726e-05,1.89815
3.07069e-05,2.12594
3.4715e-05,2.31388
3.86963e-05,2.39003
4.27011e-05,2.62302
4.66915e-05,2.76063
5.07229e-05,2.92789
5.47236e-05,3.15155
5.87005e-05,3.07273
6.26996e-05,3.19829
6.66824e-05,3.36448
7.07056e-05,3.52471
7.46932e-05,3.76394
7.87213e-05,3.96239
8.27035e-05,4.20215
8.67122e-05,4.31068
9.06825e-05,4.57516
9.46933e-05,4.88457
9.87048e-05,5.01124
0.000102717,5.30261
0.000106713,5.44015
0.000110687,5.72932
0.000114697,5.80108
0.000118672,6.14935
0.000122699,6.38249
0.000126688,6.56763
0.000130706,6.83982
0.000134706,7.08721
0.000138676,7.41372
0.000142684,7.67037
0.00014669,8.09251
0.000150698,8.38909
0.000154676,8.78765
0.000158691,9.15223
0.000162667,9.5142
0.000166662,9.88619
0.000170699,10.3211
0.000174698,10.728
0.000178695,11.1787
0.000182681,11.7122
0.000186666,12.1887
0.000190658,12.7309
0.000194693,13.2527
0.000198693,13.7996
0.000202671,14.3089
0.000206652,14.8827
0.000210657,15.4828
0.000214679,15.9602
0.000218665,16.548
0.000222676,17.1178
0.000226665,17.6119
0.000230678,18.1579
0.00023465,18.7008
0.000238654,19.3122
0.000242672,19.9028
0.00024668,20.5455
0.000250663,20.9864
0.000254658,21.7285
0.000258645,22.3162
0.000262658,22.8869
0.000266649,23.4213
0.00027065,24.0699
0.000274657,24.6987
0.000278646,25.2018
0.000282653,25.7409
0.000286643,26.1969
0.000290647,26.7611
0.000294658,27.2688
0.000298668,27.9336
0.000302644,28.4306
0.00030663,29.0305
0.000310633,29.4335
0.000314646,30.0253
0.000318645,30.6194
0.000322632,31.1664
0.000326624,31.7407
0.000330626,32.2569
0.000334656,32.7624
0.000338638,33.3749
0.000342654,33.8667
0.000346636,34.4459
0.000350613,34.92
0.00035462,35.4827
0.000358628,36.0958
0.00036264,36.5152
0.000366652,36.9515
0.000370623,37.6112
0.000374643,38.1854
0.000378635,38.6285
0.000382625,39.2537
0.000386635,39.5344
0.000390649,40.0174
0.000394612,40.4159
0.000398636,40.9076
0.00040262,41.285
0.000406612,41.7368
0.000410633,42.1962
0.000414624,42.5471
0.000418598,43.1053
0.000422612,43.5578
0.000426601,44.1311
0.000430636,44.4283
0.000434641,44.9832
0.000438657,45.4402
0.000442638,45.7882
0.000446598,46.2134
0.000450602,46.5719
0.000454601,47.0435
0.000458628,47.4638
0.000462596,47.9665
0.000466605,48.4273
0.000470586,48.7999
0.000474619,49.4279
0.000478614,50.0121
0.0004826,50.6098
0.000486614,51.1401
0.000490595,51.6702
0.00049459,52.1609
0.000498601,52.6688
0.000502596,53.0226
0.000506592,53.5465
0.000510586,53.9947
0.000514605,54.5722
0.000518581,55.2716
0.000522601,55.8329
0.000526586,56.4192
0.00053059,57.0105
0.000534619,57.5444
0.000538581,58.1991
0.000542581,58.7461
0.000546604,59.2597
0.000550598,59.8199
0.000554589,60.2528
0.000558591,60.9726
0.000562595,61.645
0.000566588,62.2385
0.000570575,62.871
0.000574581,63.5225
0.000578579,64.1355
0.000582573,64.7753
0.00058658,65.5076
0.000590574,66.1026
0.000594565,66.7475
0.000598571,67.304
0.000602598,67.9896
0.000606595,68.5298
0.000610598,69.2335
0.000614557,69.8682
0.000618564,70.5252
0.000622567,71.2701
0.000626574,71.8751
0.00063058,72.5235
0.00063456,73.1582
0.000638561,73.789
0.000642546,74.4944
0.000646569,75.1216
0.000650557,75.737
0.000654555,76.3399
0.000658552,77.0197
0.000662557,77.5732
0.000666553,78.1562
0.000670577,78.9378
0.000674564,79.6979
0.000678561,80.0772
0.00068255,80.803
0.00068655,81.5693
0.000690526,82.1791
0.00069453,82.9877
0.00069858,83.5264
0.000702567,84.13
0.000706571,84.5021
0.000710561,85.1437
0.000714549,85.5823
0.000718559,86.1212
0.000722567,86.5966
0.000726545,87.134
0.000730557,87.6777
0.000734557,87.9779
0.000738521,88.6646
0.000742533,89.1791
0.000746573,89.5661
0.000750546,90.0459
0.000754541,90.2672
0.000758541,90.8298
0.000762531,91.3423
0.000766552,91.6958
0.000770537,91.9975
0.00077455,92.6183
0.000778521,93.0916
0.000782508,93.4584
0.000786533,93.8743
0.000790556,94.1561
0.000794527,94.6203
0.000798543,94.9874
0.000802529,95.3471
0.000806488,95.7065
0.000810539,96.0421
0.000814524,96.4158
0.000818504,96.7946
0.000822532,96.9889
0.000826521,97.2694
0.000830513,97.6287
0.000834502,97.9432
0.000838524,98.1362
0.000842498,98.4479
0.000846529,98.7217
0.000850533,98.8992
0.000854509,99.2052
0.000858514,99.4785
0.000862514,99.679
0.000866524,99.8315
0.000870526,100.023
0.000874512,100.164
0.000878507,100.312
0.000882484,100.539
0.000886516,100.644
0.000890534,100.86
0.00089451,100.983
0.000898506,101.075
0.000902494,101.24
0.000906481,101.306
0.000910514,101.584
0.000914505,101.489
0.000918494,101.669
0.00092248,101.674
0.00092652,101.845
0.000930489,101.926
0.000934524,101.909
0.000938515,101.972
0.000942498,102.099
0.000946512,102.046
0.000950506,102.048
0.000954516,102.135
0.000958525,102.089
0.000962496,102.089
0.000966496,102.174
0.000970474,102.152
0.000974466,102.137
0.000978482,102.162
0.000982489,102.115
0.000986486,102.025
0.000990491,102.091
0.000994482,102.111
0.000998478,102.032
0.0010025,101.975
0.00100648,101.971
0.00101049,101.971
0.00101449,101.847
0.00101849,101.814
0.00102247,101.824
0.00102649,101.804
0.00103046,101.837
0.00103449,101.779
0.00103848,101.626
0.00104245,101.489
0.00104646,101.519
0.00105048,101.443
0.00105449,101.378
0.0010585,101.374
0.00106246,101.256
0.00106646,101.214
0.00107045,101.209
0.00107446,101.102
0.00107845,101.097
0.00108248,100.951
0.00108645,100.959
0.00109045,101.022
0.00109444,100.911
0.00109846,100.896
0.00110245,100.812
0.00110648,100.999
0.00111047,100.827
0.00111448,100.692
0.00111845,100.77
0.00112248,100.583
0.00112646,100.745
0.00113046,100.533
0.00113444,100.515
0.00113833,-0.605481
0.00114244,-0.697206
0.00114645,-0.640853
0.00115045,-0.684488
0.00115444,-0.75646
0.00115844,-0.677735
0.00116243,-0.655341
0.00116644,-0.769915
0.00117046,-0.704691