File: data/PrimaryData/Unknown_Resin/Tensile_test_4.csv
Displacement,Load
-1.44416e-16,-0.0693721
7.26487e-06,0.184988
1.48077e-05,0.271682
2.23326e-05,0.620971
2.98569e-05,0.715113
3.73382e-05,0.861574
4.48306e-05,1.17344
5.23371e-05,1.35193
5.98351e-05,1.55018
6.73446e-05,1.83858
7.48293e-05,2.165
8.23216e-05,2.36106
8.98293e-05,2.74812
9.73441e-05,3.08079
0.000104828,3.40666
0.000112328,3.87343
0.000119823,4.28556
0.000127342,4.70757
0.000134838,5.07053
0.000142344,5.54266
0.000149766,5.97862
0.000157326,6.50378
0.000164844,6.88282
0.00017232,7.44122
0.00017982,7.9404
0.000187275,8.5357
0.000194802,8.99737
0.000202309,9.61403
0.000209844,10.1214
0.000217292,10.7643
0.000224731,11.3159
0.000232286,11.9545
0.00023974,12.57
0.000247216,13.2521
0.000254721,13.9132
0.000262227,14.5469
0.000269724,15.3086
0.00027725,15.9821
0.000284747,16.6961
0.000292212,17.37
0.00029972,18.0318
0.00030723,18.745
0.000314721,19.4527
0.000322219,20.2355
0.000329717,21.0124
0.000337231,21.9191
0.000344717,22.727
0.000352243,23.4762
0.000359711,24.2307
0.000367221,25.13
0.000374706,25.8135
0.000382203,26.6728
0.000389689,27.444
0.000397187,28.2142
0.000404688,29.1467
0.000412182,30.0926
0.000419722,30.9662
0.000427205,31.5886
0.000434683,32.2841
0.000442203,33.0691
0.000449718,33.9659
0.00045719,34.663
0.00046468,35.3977
0.000472202,36.3747
0.000479708,37.1885
0.000487206,37.952
0.000494676,38.8475
0.000502225,39.3927
0.000509734,40.2864
0.000517217,40.9599
0.000524747,41.6329
0.000532154,42.2873
0.000539748,42.7913
0.000547247,43.4609
0.00055472,44.0507
0.000562204,44.6665
0.000569708,45.3022
0.000577222,45.9422
0.00058473,46.6765
0.000592228,47.4249
0.000599726,48.1944
0.000607224,49.0886
0.000614742,49.6761
0.000622223,50.4015
0.000629715,51.4749
0.000637195,52.5788
0.000644718,53.5572
0.000652215,54.3042
0.000659706,55.4142
0.000667207,56.1955
0.000674697,56.9883
0.000682202,57.7713
0.000689697,58.5067
0.000697201,59.4332
0.000704689,60.3641
0.000712212,61.2957
0.000719697,62.2181
0.000727194,62.9467
0.000734684,63.8898
0.000742186,64.5503
0.000749696,65.3355
0.000757196,66.1564
0.000764682,66.8898
0.000772167,67.7201
0.000779694,68.4053
0.000787204,69.1899
0.000794668,70.0147
0.000802171,70.9172
0.000809703,71.8381
0.00081718,72.7871
0.000824671,73.723
0.000832165,74.53
0.000839654,75.3688
0.00084717,76.165
0.000854682,76.9899
0.00086215,77.9211
0.000869633,78.8226
0.000877171,79.8745
0.000884682,80.7053
0.000892164,81.544
0.000899664,82.443
0.000907144,83.255
0.000914663,84.1448
0.000922166,84.9221
0.000929645,85.7719
0.000937149,86.4268
0.000944659,87.1384
0.000952163,87.9393
0.000959646,88.5865
0.000967132,89.1655
0.000974668,89.8734
0.000982157,90.4759
0.000989629,90.9293
0.000997158,91.5941
0.00100464,92.0907
0.0010121,92.7077
0.00101961,93.0459
0.00102715,93.392
0.00103461,93.9469
0.00104215,94.427
0.00104963,94.855
0.00105713,95.0656
0.0010646,95.494
0.00107215,95.8865
0.00107961,96.1912
0.00108707,96.5016
0.00109464,96.7429
0.00110209,97.0145
0.0011096,97.2517
0.00111709,97.4355
0.0011246,97.5448
0.00113211,97.6852
0.00113962,97.771
0.00114711,97.8753
0.00115454,97.9842
0.00116205,98.0185
0.00116958,98.028
0.00117707,98.0416
0.00118454,97.9125
0.00119205,97.9746
0.00119955,97.9469
0.00120704,97.9656
0.00121455,97.8463
0.00122201,97.7572
0.00122954,97.7062
0.00123705,97.5571
0.00124453,97.5151
0.00125202,97.5617
0.00125952,97.4178
0.00126701,97.4741
0.00127455,97.3213
0.00128202,97.1964
0.00128951,97.0522
0.00129699,96.9223
0.00130451,96.9823
0.00131203,96.8658
0.0013195,96.8101
0.001327,96.7107
0.0013345,96.5544
0.00134201,96.4827
0.00134953,96.3129
0.001357,96.1569
0.00136449,95.9735
0.00137201,95.8029
0.00137951,95.6381
0.00138701,95.4368
0.00139448,95.3174
0.00140201,95.1477
0.00140948,94.9261
0.00141701,94.8674
0.00142449,94.708
0.00143198,94.5001
0.00143953,94.2665
0.00144707,94.1733
0.0014545,94.082
0.00146201,93.9932
0.0014695,93.8842
0.00147704,93.9339
0.00148454,93.6516
0.00149201,93.7067
0.00149949,93.6687
0.00150704,93.5551
0.00151454,93.5358
0.00152205,93.2823
0.00152954,93.3631
0.00153701,93.0968
0.00154455,93.0782
0.00155204,92.974
0.00155955,92.9332
0.00156705,92.8434
0.00157455,92.8116
0.00158203,92.807
0.00158952,92.7109
0.00159705,92.7386
0.00160453,92.7845
0.00161204,92.7296
0.00161953,92.7018
0.00162702,92.6194
0.00163453,92.581
0.00164203,92.6085
0.00164951,92.4996
0.001657,92.6275
0.00166452,92.5281
0.00167202,92.3989
0.00167952,92.5071
0.00168702,92.3065
0.0016945,92.4434
0.00170198,92.4372
0.00170949,92.399
0.00171701,92.2888
0.00172451,92.3467
0.001732,92.3508
0.00173951,92.2988
0.00174701,92.2296
0.00175451,92.3553
0.001762,92.3642
0.00176948,92.3734
0.00177699,92.3618
0.00178449,92.364
0.00179199,92.3963
0.00179949,92.3952
0.00180699,92.5588
0.00181449,92.5707
0.00182199,92.6577
0.00182949,92.641
0.00183697,92.7408
0.00184449,92.6058
0.00185198,92.6617
0.00185949,92.7234
0.00186695,92.8069
0.00187445,92.7563
0.00188195,92.8544
0.00188947,92.8545
0.00189696,92.8527
0.00190451,92.9423
0.00191194,92.9194
0.00191948,93.0115
0.00192698,93.11
0.00193445,93.0525
0.00194195,93.167
0.00194949,93.2381
0.00195696,93.1961
0.00196444,93.3577
0.00197196,93.4695
0.00197944,93.5206
0.00198693,93.5923
0.00199447,93.551
0.00200196,93.7004
0.00200946,93.7073
0.00201693,93.744
0.00202442,93.7787
0.00203194,93.9362
0.00203944,94.0533
0.00204695,94.0915
0.00205437,94.1213
0.00206193,94.1396
0.00206944,94.2626
0.00207689,94.291
0.00208439,94.2506
0.00209188,94.4608
0.00209941,94.4895
0.0021069,94.3824
0.00211436,94.226
0.00212187,94.0164
0.00212935,-0.230355
0.00213689,-0.128784
0.00214437,-0.184669
0.00215185,-0.260816
0.00215283,-0.209538