File: data/PrimaryData/Brass/Tensile_003.csv
Displacement (mm),Load (N)
0.000673167,0.798101
0.00057337,1.02279
0.000505663,2.19568
0.000604557,5.77777
0.000583392,10.511
0.000804856,16.4075
0.000916907,21.9765
0.000949208,27.2482
0.00097285,41.51
0.00122739,64.6605
0.00141588,96.0765
0.00178432,126.659
0.00241377,170.237
0.00265498,222.422
0.00333115,272.972
0.00397213,331.621
0.00456674,393.575
0.00496578,453.638
0.00585907,523.424
0.00658657,586.466
0.00715628,659.307
0.00804754,727.326
0.00856863,786.145
0.00919634,839.167
0.00977064,898.163
0.010588,959.203
0.0113535,1027.71
0.0121008,1097.66
0.0127696,1163.63
0.0134481,1232.23
0.014294,1304.11
0.0151042,1379.95
0.0156678,1456.33
0.0167586,1533.2
0.0175921,1604.5
0.0184601,1677.85
0.0194381,1752.5
0.0203015,1827.48
0.0210134,1906.4
0.0217391,1983.13
0.022643,2052.43
0.023414,2121.38
0.0242935,2189.76
0.02478,2253.05
0.026054,2321.76
0.0266779,2391.55
0.0270057,2458.79
0.0281342,2532.5
0.0289148,2606.46
0.0295817,2679.31
0.0308017,2760.99
0.0315266,2836.29
0.0326725,2912.53
0.0333777,2993.49
0.0343608,3077.5
0.0351599,3159.77
0.0364432,3244.19
0.0371174,3328.24
0.0382001,3414.23
0.0391703,3502.5
0.0401875,3590.7
0.041177,3676.87
0.0422362,3765.79
0.0432525,3859.49
0.0441732,3953.86
0.0453523,4044.32
0.0464931,4142.34
0.0476822,4238.53
0.048576,4337.76
0.049813,4433.13
0.051017,4540.39
0.0520915,4630.11
0.0531793,4724.57
0.054514,4824.5
0.055782,4925.84
0.0572685,5035.66
0.0582225,5140.24
0.0596245,5247.42
0.0609287,5358.48
0.0621761,5472.35
0.0637203,5589.83
0.065271,5709.95
0.0663834,5829.43
0.068306,5957.84
0.0695955,6085.01
0.0713307,6214.13
0.0731815,6349.75
0.0746211,6484.81
0.0764507,6620.48
0.0783718,6756.41
0.0802618,6899.63
0.0820837,7044.39
0.0841381,7188.87
0.085821,7333.04
0.0876876,7477.73
0.0899752,7627.59
0.0919006,7781.41
0.0942792,7936.46
0.0961925,8093.64
0.0983969,8254.89
0.100841,8415.5
0.103303,8574.88
0.106045,8738.62
0.108237,8908.68
0.110979,9077.27
0.113835,9251.81
0.116469,9419.45
0.119331,9594.18
0.122307,9771.59
0.125643,9950.11
0.128647,10128.2
0.131905,10309.2
0.135206,10492
0.139021,10678.1
0.142288,10860.8
0.146046,11047.3
0.150223,11235.3
0.154086,11422.5
0.158221,11613.8
0.162563,11806.8
0.170161,12183.7
0.186442,12778.6
0.2033,13338.5
0.222077,13881.1
0.243006,14390.9
0.266869,14873.6
0.29371,15309.7
0.324908,15697.5
0.360864,16030.7
0.40196,16305.4
0.447273,16521.3
0.49695,16689.3
0.551244,16815.5
0.608755,16916.4
0.668739,16996.9
0.730925,17059.8
0.795357,17118.7
0.860913,17164
0.927192,17203.9
0.994705,17244.4
1.06214,17276.9
1.12976,17306.8
1.19866,17340.2
1.2773,17367
1.38303,17391.8
1.48898,17419.6
1.59471,17441.3
1.70052,17463
1.80639,17485.1
1.91225,17505.2
2.01798,17524.4
2.12393,17546.4
2.22975,17563.2
2.33548,17582.1
2.44143,17601.6
2.54725,17617.3
2.65297,17634.2
2.75888,17650.4
2.8647,17664.3
2.97052,17679.6
3.07638,17693
3.18225,17708.2
3.28802,17720.8
3.39393,17734.2
3.4997,17748.2
3.60561,17760.2
3.71138,17772.9
3.8172,17786.4
3.92301,17797
4.02888,17808.8
4.13469,17820.8
4.24051,17831.4
4.34628,17842.3
4.45219,17853.1
4.55806,17862
4.66383,17872.7
4.76974,17883.1
4.87555,17890.4
4.98137,17900.4
5.08723,17911.5
5.19301,17918.7
5.29878,17928.7
5.40473,17938.9
5.51055,17947
5.61632,17954
5.72223,17962.7
5.82805,17970
5.93382,17976.7
6.03968,17983.8
6.1455,17994.7
6.25132,17998.7
6.35723,18003.9
6.46309,18014.3
6.56886,18018.8
6.67473,18025.3
6.78054,18033.3
6.88636,18039.4
6.99213,18045.8
7.09804,18054.1
7.20381,18057.7
7.30972,18065.8
7.41545,18070.7
7.52131,18074.9
7.62713,18079.2
7.73304,18086.1
7.83886,18089
7.94472,18094.2
8.05054,18100
8.15635,18103.9
8.26217,18111
8.36803,18115.5
8.4738,18118.9
8.57962,18124
8.68549,18127.5
8.7913,18132.3
8.89707,18137
9.00298,18138.6
9.1088,18142.2
9.21467,18146.4
9.32053,18149.9
9.42635,18151.5
9.53216,18157.5
9.63803,18157.1
9.74384,18161.1
9.84971,18162.5
9.95553,18166.1
10.0613,18170.7
10.1672,18173.9
10.273,18175.9
10.3788,18179.8
10.4846,18181.9
10.5905,18183
10.6963,18186.3
10.8022,18188.2
10.9079,18189
11.0138,18189
11.1197,18189.9
11.2255,18190.4
11.3313,18191.7
11.4372,18192.5
11.543,18194.4
11.6488,18194
11.7547,18195.9
11.8605,18197
11.9663,18197.4
12.0722,18195.4
12.178,18196.7
12.2839,18193.8
12.3897,18193.8
12.4956,18194.5
12.6013,18189.8
12.7071,18189.2
12.813,18184.4
12.9188,18180.7
13.0246,18179.8
13.1305,18173.9
13.2363,18166.7
13.3422,18164.1
13.448,18156.6
13.5538,18147.4
13.6597,18139.1
13.7655,18128.3
13.8713,18116.3
13.9771,18102.6
14.083,18086.9
14.1888,18068.2
14.2947,18047.7
14.4005,18028
14.5063,18004.9
14.6122,17977.1
14.718,17948.1
14.8239,17916.7
14.9296,17880.1
15.0355,17839.2
15.1413,17792
15.2472,17740.2
15.3531,17680.6
15.4589,17611.5
15.5648,17525.4
15.6706,17418.4
15.7765,17261.6
15.8823,17033.2
15.9893,9474.8
16.0252,5257.53