File: data/PrimaryData/Brass/Tensile_004.csv
Displacement (mm),Load (N)
0.000523125,-0.778477
0.000468825,1.07295
0.000424389,2.15274
0.000512627,5.60245
0.000643643,10.5287
0.000565579,18.3652
0.000716546,30.1495
0.000945275,43.7659
0.0012215,63.9409
0.00129618,87.6578
0.00164433,119.559
0.0022191,161.402
0.00234867,202.692
0.00271081,250.395
0.00352256,311.096
0.00412389,366.474
0.00496942,427.553
0.00569648,493.839
0.00620141,557.457
0.00687757,621.185
0.00759578,674.474
0.00708264,658.664
0.00713589,668.922
0.00767065,699.086
0.00788365,738.465
0.00867073,781.991
0.00888955,822.496
0.00916747,865.363
0.00958198,914.508
0.0101033,963.311
0.0104447,991.059
0.0108641,1018.46
0.0114521,1074.36
0.0117722,1123.13
0.0122607,1171.59
0.012879,1222.02
0.0136221,1270.47
0.0141885,1321.09
0.0145356,1370.66
0.0150591,1426.56
0.0156616,1482.97
0.0161706,1535.47
0.0169929,1595.35
0.0174439,1655.15
0.0180923,1715.52
0.0188901,1782.46
0.0196227,1844.8
0.0205973,1914.84
0.0213229,1982.3
0.0219883,2054.53
0.0227261,2130.78
0.0235979,2203.87
0.0244381,2281.71
0.0254097,2363.63
0.0261382,2446.05
0.027148,2530.38
0.0281321,2614.42
0.0290461,2700.83
0.0301068,2790.44
0.0307357,2879.41
0.0321439,2971.83
0.0331798,3067.45
0.0342083,3166.36
0.0350446,3262.27
0.0365457,3362.47
0.0377313,3470.11
0.0389472,3572.11
0.0403954,3681.17
0.041727,3790.04
0.0429082,3905.46
0.0441293,4030.08
0.0458595,4144.78
0.0469843,4263.68
0.0486875,4382.57
0.050173,4505.23
0.051455,4627.92
0.0532053,4756.53
0.0550321,4885.78
0.0567936,5016.42
0.058378,5147.88
0.0603538,5281.72
0.0625523,5420.63
0.064149,5561.73
0.0661872,5708.35
0.067856,5847.81
0.0701773,5994.76
0.0723005,6140.71
0.0744306,6287.01
0.076834,6442.16
0.0789988,6596.35
0.0816771,6747.76
0.0839439,6902.83
0.0865364,7060.83
0.0895806,7225.69
0.0923271,7387.82
0.0952796,7545.33
0.0980572,7707.23
0.101526,7874.16
0.104908,8040.49
0.108088,8201.52
0.111691,8365.44
0.115472,8530.7
0.119123,8698.3
0.123348,8864.91
0.127582,9029.8
0.131909,9198.7
0.13653,9361.98
0.141524,9530.74
0.146328,9691.33
0.151607,9857.58
0.157541,10026
0.162909,10184.6
0.168988,10342.1
0.175521,10499.8
0.182259,10656.6
0.189268,10809.9
0.196578,10957.1
0.204171,11105
0.21238,11247.7
0.220623,11386.7
0.230704,11617.1
0.269071,12034.2
0.306434,12352.4
0.348847,12609.3
0.396539,12811.9
0.448502,12963.3
0.504379,13080.6
0.562734,13172.2
0.624227,13246.6
0.687702,13309.1
0.751905,13361.1
0.817294,13408
0.883862,13449.4
0.950975,13488.6
1.01821,13525.9
1.08612,13558.4
1.15406,13589.1
1.22261,13619.5
1.31273,13648.3
1.41855,13675.5
1.52441,13702.7
1.63023,13727.9
1.73605,13749.9
1.84191,13775.3
1.94773,13794.1
2.05354,13817.2
2.15936,13839.3
2.26522,13858.5
2.37099,13877.5
2.47691,13897.6
2.58277,13913
2.68849,13932.3
2.7944,13950.2
2.90017,13966.1
3.00599,13983.3
3.1119,13998.6
3.21767,14014.5
3.32344,14030.2
3.42935,14043.4
3.53522,14060.3
3.64094,14072.8
3.74685,14086.6
3.85262,14101.6
3.95849,14114.2
4.0643,14126.9
4.17021,14140.1
4.27594,14151.4
4.38185,14164
4.48762,14177.7
4.59348,14186.3
4.6993,14198
4.80521,14212
4.91098,14220.8
5.0168,14233
5.12266,14243.6
5.22843,14252.8
5.3343,14263.6
5.44021,14274.8
5.54593,14283.1
5.6518,14294
5.75766,14302.9
5.86348,14310.9
5.96925,14322.8
6.07516,14329.5
6.18093,14338.5
6.28679,14349
6.39265,14356.7
6.49843,14363.9
6.60424,14372.4
6.71011,14380
6.81588,14388.7
6.92174,14396.8
7.02756,14403.5
7.13338,14411
7.23929,14418.4
7.3451,14424.7
7.45092,14433.6
7.55674,14440
7.66265,14444.2
7.76842,14451.9
7.87428,14457.8
7.9801,14462.3
8.08596,14468.6
8.19178,14475.4
8.29755,14481.9
8.40346,14489.3
8.50928,14493.3
8.6151,14500.3
8.72096,14504.1
8.82678,14510.1
8.93255,14515
9.03846,14519.7
9.14428,14526.8
9.25005,14533
9.35596,14537.1
9.46173,14544.7
9.56759,14551
9.67336,14550.7
9.77927,14553.9
9.88504,14551.7
9.99095,14553.1
10.0967,14560.6
10.2026,14566.6
10.3084,14571.4
10.4143,14580.8
10.5201,14585.4
10.6259,14588.7
10.7318,14593.3
10.8376,14596.7
10.9434,14600.3
11.0493,14603.8
11.1551,14606.3
11.2609,14609.2
11.3668,14610.875
11.4727,14613.8
11.5784,14615.9
11.6843,14617.6
11.7901,14620.4
11.8959,14621.9
12.0018,14621.9
12.1076,14625.2
12.2134,14625.4
12.3193,14627.3
12.4251,14629.7
12.5309,14627.1
12.6368,14627
12.7426,14629.1
12.8484,14627
12.9542,14624.4
13.0601,14627.5
13.1659,14624.8
13.2718,14620.6
13.3776,14621
13.4835,14619.8
13.5892,14615.6
13.6951,14617.4
13.801,14614
13.9067,14611.9
14.0126,14610.3
14.1184,14605.5
14.2242,14600
14.3301,14595.7
14.4359,14589.1
14.5417,14583.4
14.6477,14575.9
14.7535,14565.9
14.8592,14555.4
14.9652,14544.3
15.071,14530.9
15.1768,14515.9
15.2826,14499.6
15.3885,14482.6
15.4942,14460.4
15.6001,14437.7
15.7059,14412.5
15.8117,14384.4
15.9176,14350.5
16.0235,14317.5
16.1293,14277.6
16.2351,14230.5
16.341,14183
16.4468,14125.6
16.5526,14063.1
16.6586,13989.4
16.7644,13903.7
16.8702,13803.2
16.9761,13687.8
17.0819,13546.5
17.1877,13373
17.2937,13160.8
17.3995,12898.3
17.5054,12572.4
17.6113,12112.1
17.6478,-4894.45