File: data/PrimaryData/Brass/Tensile_002.csv
Displacement (mm),Load (N)
2.70396e-05,0.667243
3.35528e-06,0.286298
0.000161203,1.55344
0.00012742,2.79573
0.000332389,6.57357
0.000473617,12.18
0.00026903,11.2189
0.000513903,18.3801
0.00039275,32.7886
0.000824299,47.5633
0.000895438,74.3462
0.00134675,108.472
0.0017562,143.398
0.00202146,181.626
0.00252665,216.998
0.00295257,252.852
0.00355941,297.883
0.0037507,328.661
0.00364508,353.684
0.00417866,362.024
0.00423316,391.265
0.00454506,411.074
0.00460277,428.148
0.00485803,466.989
0.00547625,499.067
0.00578642,536.999
0.00608885,577.757
0.00636138,618.361
0.00696952,659.029
0.00720329,704.705
0.00781443,752.558
0.00824616,802.579
0.00868606,854.314
0.00937789,907.52
0.00982837,964.368
0.0104571,1023.83
0.011392,1084.86
0.0121397,1150.15
0.0126475,1214.57
0.013403,1278.73
0.0139819,1350.33
0.0147856,1422.95
0.0153176,1492.79
0.0163388,1569.79
0.0172731,1643.85
0.0179075,1719.66
0.0185433,1794.96
0.0195618,1873.4
0.0201306,1946.54
0.0210867,2021.87
0.0216178,2093.12
0.0224322,2158.99
0.0230323,2226.74
0.0237991,2296.93
0.0246841,2364.54
0.0253331,2432.02
0.0257587,2499.59
0.0266629,2567.13
0.0275092,2636.94
0.0281574,2706.94
0.0288907,2778.86
0.0295663,2855.18
0.0306534,2933.8
0.031282,3009.92
0.0323711,3092.26
0.0332219,3173.24
0.0339596,3256.58
0.0349668,3341.53
0.0361502,3431.72
0.0369712,3522.83
0.0379753,3616.22
0.0390629,3710.73
0.0400645,3805.65
0.0410181,3900.9
0.0419701,3999.43
0.0433543,4102.35
0.0443913,4203.48
0.0454746,4310.74
0.0464772,4417.49
0.0476448,4529.89
0.0488939,4638.96
0.0503875,4753.3
0.0514334,4872.87
0.0528081,4991.16
0.0541044,5110.18
0.0557299,5233.03
0.0569778,5355.88
0.0584352,5483.35
0.0601328,5610.9
0.0614603,5739.5
0.0629721,5870.38
0.0644587,6006.04
0.0662347,6141.92
0.0675827,6278.95
0.0693262,6418.49
0.0711464,6560.54
0.0729553,6710.14
0.0747169,6857.5
0.0766293,7005.78
0.0784958,7155.56
0.0805245,7308.62
0.0825796,7466.49
0.0845862,7618.43
0.086816,7777.92
0.0888721,7940.88
0.0910124,8100.64
0.0930927,8267.22
0.0956068,8436.43
0.0983889,8603.67
0.100556,8773.84
0.103388,8944.84
0.106308,9117.27
0.108833,9296.19
0.111692,9474.53
0.114812,9650.86
0.117937,9829.59
0.121252,10011.7
0.124362,10190.2
0.127866,10374.7
0.131461,10558.4
0.137737,10920.4
0.149933,11467.4
0.162873,11986.5
0.177092,12499.4
0.193012,13002.6
0.210728,13479.5
0.230702,13932.5
0.253397,14353.2
0.280073,14736.5
0.311157,15074.8
0.347696,15351.6
0.389635,15576.9
0.437004,15748.4
0.489532,15879.6
0.545888,15981.3
0.60606,16060.7
0.668787,16123.1
0.733714,16178.7
0.800133,16226
0.86763,16266.2
0.936109,16306.2
1.00501,16337.7
1.07412,16370.4
1.14392,16400.7
1.21369,16426.8
1.30057,16454.6
1.40643,16482.7
1.51225,16505.3
1.61807,16529.3
1.72393,16550.9
1.82979,16571.9
1.93561,16593.9
2.04148,16613.8
2.1472,16632
2.25306,16652.9
2.35897,16669.5
2.46474,16687.9
2.57052,16705.7
2.67647,16720.9
2.7822,16738
2.88806,16753.9
2.99388,16767.2
3.09974,16782.8
3.20556,16797.8
3.31142,16811.5
3.41719,16824.5
3.52306,16837.8
3.62887,16848.9
3.73469,16863.9
3.8406,16876.5
3.94633,16888.7
4.05219,16902.6
4.15801,16911
4.26387,16923
4.36969,16933.8
4.47555,16944.7
4.58132,16954.4
4.68728,16965
4.7931,16975.5
4.89887,16984.2
5.00473,16994.3
5.11059,17003.8
5.21636,17015
5.32223,17022.3
5.42805,17031.9
5.53386,17040.7
5.63973,17048
5.74554,17058
5.85136,17063.7
5.95723,17071.2
6.06304,17079.5
6.16895,17088.3
6.27468,17093.4
6.38059,17103.4
6.4864,17108.5
6.59222,17115.8
6.69799,17124.9
6.80386,17129.1
6.90963,17134.2
7.01554,17141.8
7.12135,17150.9
7.22713,17153.1
7.33304,17161.4
7.43885,17166.7
7.54467,17171.8
7.65053,17176.1
7.7564,17182.7
7.86217,17187.7
7.96803,17191.6
8.0739,17196.7
8.17971,17202.8
8.28553,17207.5
8.39139,17212.6
8.49721,17217.6
8.60298,17220
8.70885,17226.7
8.81462,17230
8.92048,17231.1
9.02634,17237.5
9.13216,17239
9.23798,17241.1
9.34384,17247.6
9.44971,17249.9
9.55548,17251.1
9.66139,17257.4
9.7672,17259.5
9.87297,17260.3
9.97879,17267
10.0847,17267.1
10.1904,17271.4
10.2964,17274.4
10.4022,17274.7
10.508,17277.1
10.6139,17279.8
10.7197,17279.9
10.8255,17283.6
10.9314,17283
11.0372,17284.5
11.143,17285.4
11.2489,17287.3
11.3547,17288.1
11.4605,17287.7
11.5664,17289.3
11.6722,17291
11.778,17292.8
11.8838,17291.9
11.9897,17293.9
12.0954,17293.7
12.2013,17290.7
12.3072,17291.4
12.413,17288.6
12.5188,17287.4
12.6247,17286
12.7306,17284.9
12.8363,17278.5
12.9422,17278.2
13.0481,17272.3
13.1539,17268.2
13.2596,17263.8
13.3655,17257.7
13.4712,17248.1
13.5772,17241.3
13.683,17231.8
13.7888,17220.6
13.8947,17208.5
14.0006,17194.9
14.1064,17178.8
14.2123,17160.4
14.3181,17141
14.4239,17118
14.5298,17092.7
14.6356,17066.2
14.7414,17035.3
14.8473,17000.3
14.9531,16962.6
15.0589,16917.4
15.1647,16860.9
15.2706,16800
15.3764,16721.7
15.4822,16632.1
15.5881,16517.8
15.6939,16337.3
15.7998,15887.8
15.9067,9447.1