File: data/PrimaryData/Brass/Tensile_001.csv
Displacement (mm),Load (N)
9.40746e-05,0.73899
0.000287397,0.829772
0.000148141,1.83066
0.000238302,4.9684
0.00023099,10.1354
8.32248e-05,10.8293
0.000117183,15.7329
0.000314471,24.7456
0.000673368,39.1893
0.000861228,55.8608
0.000764777,80.4334
0.00121322,108.137
0.00137962,131.792
0.0016513,157.236
0.00156462,173.826
0.00176578,188.433
0.00203616,203.02
0.0015959,199.84
0.00159412,196.001
0.00152294,201.051
0.00180757,215.847
0.00175617,226.046
0.0018172,242.136
0.00204382,262.009
0.00211582,276.519
0.00213188,296.53
0.00262697,316.602
0.00264968,334.154
0.00256455,352.14
0.00279632,374.508
0.00312034,396.219
0.003018,419.825
0.0032971,445.313
0.00326928,472.783
0.00368685,502.279
0.00361023,533.168
0.00393035,562.678
0.00418101,593.661
0.00439813,623.792
0.00471621,659.69
0.00483541,695.939
0.00547239,728.952
0.00551998,770.381
0.00581297,807.21
0.00638557,849.264
0.00643747,889.511
0.00666541,935.163
0.00726893,977.281
0.00742028,1025.37
0.00786634,1074.52
0.00844435,1122.76
0.00849241,1171
0.00909916,1222.31
0.00945028,1276.78
0.00973902,1332.73
0.0104493,1390.11
0.0107985,1447.46
0.011342,1509.43
0.011912,1575.69
0.0121894,1640.76
0.0127668,1703.71
0.0133039,1769.48
0.0139966,1842.88
0.014494,1911.29
0.0153168,1987.94
0.0161124,2062.36
0.0166125,2142.77
0.0172912,2224.62
0.0181704,2308.53
0.0189599,2392.01
0.0194243,2480.05
0.0203411,2566.95
0.0213653,2658.05
0.0220028,2749.97
0.022995,2843.41
0.0236622,2940.12
0.0245397,3038.55
0.0255494,3138.97
0.0264319,3241.09
0.0273471,3344.22
0.0286546,3454.36
0.0296,3562.23
0.0308295,3672.52
0.0316574,3790.99
0.0328817,3910.87
0.0339774,4026.69
0.0353121,4150.72
0.0364897,4275.31
0.0378276,4404.93
0.0390998,4531.44
0.040276,4659.92
0.0416011,4790.88
0.0428063,4926.52
0.0442064,5066.81
0.0457447,5205.87
0.0470729,5346.11
0.0486237,5490.95
0.049981,5639.75
0.051852,5783.99
0.0534148,5935.93
0.0551284,6087.01
0.0569063,6245.15
0.0586263,6398.76
0.0601909,6554.17
0.0621523,6715.86
0.0641961,6879.44
0.0659049,7044.17
0.0679323,7209.94
0.0699028,7377.82
0.0721686,7548.84
0.074016,7721.99
0.07652,7900.21
0.0785999,8081.25
0.0809722,8258.41
0.0831863,8447.02
0.0859207,8629.2
0.0885275,8815.5
0.0908712,8997.94
0.093917,9189.5
0.0965842,9381.2
0.101457,9700.56
0.111672,10285.3
0.121205,10819.1
0.132194,11340.8
0.144402,11858.2
0.15807,12359.8
0.173775,12839.1
0.191321,13297.9
0.211835,13726.9
0.235177,14121.6
0.262362,14476.1
0.29367,14784.4
0.330102,15045.3
0.371099,15258.6
0.417291,15425.9
0.469204,15561.5
0.524621,15664
0.583958,15748.5
0.645962,15817.4
0.71076,15875.8
0.777058,15926
0.843744,15971.9
0.911682,16011.4
0.980451,16050.1
1.04907,16086.1
1.11784,16117.5
1.1877,16151.5
1.25722,16179.2
1.3267,16206.9
1.39637,16235.1
1.46637,16259.4
1.53612,16282.8
1.60521,16308.1
1.67526,16329.9
1.74502,16350.6
1.81512,16373.4
1.88463,16392.7
1.95514,16413.7
2.02462,16429.8
2.09472,16449
2.16432,16468.2
2.23488,16485.1
2.30521,16501.9
2.37528,16518.6
2.44596,16533.6
2.5168,16550.3
2.58731,16566.5
2.65761,16579.2
2.72838,16594.6
2.79899,16606.1
2.8698,16619.7
2.94103,16633.5
3.01197,16646.5
3.08341,16657.3
3.15442,16672.4
3.22614,16684.5
3.2977,16693.8
3.36894,16708.5
3.44057,16718.3
3.51228,16728.2
3.58355,16740.8
3.65489,16749.9
3.72661,16759.9
3.79865,16772.6
3.87043,16780.2
3.94255,16789.3
4.01482,16800.4
4.08698,16806.3
4.15941,16819
4.2316,16826.7
4.3043,16836.875
4.37676,16844.3
4.449,16853.2
4.52199,16862.4
4.59458,16868.3
4.6669,16874.5
4.74018,16884.9
4.81387,16890.6
4.88713,16897
4.96098,16906.2
5.03571,16912.9
5.11049,16917.1
5.18439,16927.1
5.25894,16933
5.33462,16939.6
5.40957,16946.8
5.48438,16953.4
5.55958,16957.6
5.63535,16964.9
5.71054,16969.3
5.7858,16975.6
5.8616,16980.6
5.93731,16985
6.01291,16989.3
6.08846,16995.9
6.16424,16999.4
6.23931,17003.7
6.31426,17008.5
6.38968,17015.1
6.46517,17019.1
6.54129,17021.9
6.61836,17027
6.69745,17030.5
6.77737,17032.8
6.8589,17039.3
6.9419,17040.8
7.02643,17044.2
7.1121,17048.6
7.19774,17054.1
7.28234,17054.9
7.36419,17059.7
7.44432,17060.4
7.52353,17063.1
7.60356,17066.1
7.68416,17067
7.76484,17070.6
7.84558,17074.6
7.92543,17076.8
8.00264,17079.5
8.0784,17083.5
8.15316,17082.7
8.22887,17086.5
8.30548,17087.2
8.38462,17089
8.467,17089.3
8.55198,17090.7
8.64012,17090.3
8.73053,17093
8.82339,17092.3
8.91774,17092.5
9.01393,17093.8
9.11179,17090.9
9.21121,17091.6
9.31162,17089.1
9.41296,17088.6
9.51544,17086.7
9.61772,17083.5
9.72066,17080.4
9.82454,17079.6
9.92833,17073.7
10.0327,17067.9
10.1374,17061.9
10.2422,17053.3
10.3472,17047.9
10.452,17040.3
10.5574,17028
10.6626,17018.1
10.768,17006.8
10.8734,16992.3
10.979,16974.3
11.0848,16957.5
11.1902,16936.4
11.2962,16916.7
11.4023,16886.375
11.5083,16860.1
11.6146,16828
11.7212,16790.4
11.8277,16750.1
11.9343,16703.8
12.0414,16651.1
12.1493,16589.8
12.257,16518.3
12.3652,16435.7
12.4741,16332.125
12.5843,16189.1
12.6949,16012.1
16.5158,-2835.71