File: data/PrimaryData/Brass/Tensile_006.csv
Displacement (mm),Load (N)
mm,lbf
0.00015398,-0.524574
8.62086e-05,-0.803665
0.000759499,-0.212929
0.000196533,0.342506
0.000139002,0.771281
0.000850474,3.29268
0.00090981,4.9693
0.00121977,7.84054
0.00101279,12.2019
0.00151233,16.9614
0.00156712,23.316
0.00199212,30.2336
0.00227923,38.7411
0.0029984,50.3304
0.00381645,61.6397
0.00399634,74.4042
0.00481347,89.641
0.00487248,103.404
0.0062439,120.803
0.00670086,137.467
0.00765371,156.675
0.00878094,175.767
0.00934893,195.953
0.0103475,216.443
0.0114316,239.17
0.0128033,262.248
0.0141826,285.004
0.0149635,308.852
0.0156882,329.328
0.0169895,342.465
0.0162279,330.375
0.0163019,330.301
0.0168707,337.379
0.016354,345.12
0.0176003,353.322
0.0175747,361.711
0.0182488,370.617
0.017958,380.321
0.0183516,384.512
0.0188401,392.684
0.019084,401.745
0.0203843,412.769
0.020809,422.985
0.0212788,433.731
0.0210574,443.5
0.0217285,454.722
0.0220305,467.18
0.0228232,478.274
0.0241372,491.122
0.024178,503.417
0.0247303,515.845
0.0258136,529.539
0.026419,544.137
0.0272281,557.915
0.027336,572.27
0.0284099,588.423
0.029058,603.251
0.0296338,618.455
0.0303527,634.347
0.0308838,650.521
0.0328779,668.297
0.0336901,685.259
0.0338713,701.808
0.0357633,720.493
0.0366484,739.086
0.0373319,758.04
0.0383215,777.835
0.0391078,796.516
0.0406087,815.964
0.0412702,835.528
0.0431053,857.123
0.043561,876.392
0.0444604,899.332
0.0461086,922.324
0.0471795,943.925
0.0482031,966.708
0.0499288,989.495
0.0506357,1011.69
0.0519134,1035.67
0.0531937,1059.67
0.0547687,1083.83
0.0563488,1108.25
0.0585231,1133.57
0.0601571,1158.81
0.0611563,1184.63
0.062466,1210.89
0.0644946,1237.53
0.0660867,1263.25
0.0679571,1290.88
0.0693268,1318.24
0.071802,1346.49
0.0737818,1375.13
0.0749629,1403.82
0.0770641,1432.24
0.0796414,1462.15
0.0813939,1491.41
0.0840353,1522.12
0.0858049,1551.55
0.0883741,1581.77
0.0904889,1612.82
0.0935573,1644
0.0956039,1674.91
0.0988009,1706.71
0.101109,1737.98
0.104434,1770.03
0.107062,1802.3
0.109671,1834.1
0.113701,1867.51
0.117306,1900.72
0.120565,1933.62
0.123997,1966.13
0.127287,1998.61
0.131021,2030.4
0.134945,2064.43
0.138951,2097.02
0.143709,2130.67
0.148529,2163.34
0.153545,2197.15
0.158734,2230.48
0.163636,2262.82
0.169033,2294.93
0.174854,2327.33
0.180564,2358.72
0.186974,2390.07
0.193539,2421.74
0.202301,2474.03
0.232041,2578.97
0.260353,2658.08
0.291879,2726.39
0.328561,2782.99
0.368363,2828.81
0.413219,2865.06
0.461679,2894.24
0.514385,2917.42
0.56939,2935.39
0.62725,2950.3
0.687161,2963.6
0.747983,2974.67
0.810948,2984.83
0.874787,2994.12
0.938224,3002.38
1.00269,3009.62
1.06813,3017.06
1.13358,3024.24
1.19891,3030.51
1.27215,3037.42
1.37373,3042.67
1.47531,3048.47
1.57689,3053.25
1.67846,3059.49
1.78014,3064.34
1.88172,3068.24
1.98329,3073.81
2.08487,3078.47
2.1865,3082.16
2.28812,3086.59
2.38961,3090.7
2.49128,3095.06
2.59291,3099.23
2.69449,3102.59
2.79611,3105.45
2.89774,3109.88
2.99927,3112.78
3.1009,3116.39
3.20252,3119.75
3.3041,3122.57
3.40568,3125.71
3.5073,3128.74
3.60888,3132.06
3.71051,3135.15
3.81213,3137.31
3.91367,3140.51
4.01529,3143.16
4.11692,3146.25
4.2185,3148.15
4.32008,3150.62
4.4217,3153.38
4.52328,3155.56
4.62495,3158.07
4.72653,3160.38
4.82811,3162.53
4.92974,3164.87
5.03127,3166.71
5.13289,3169.34
5.23452,3171.85
5.3361,3173.74
5.43768,3175.76
5.53926,3177.66
5.64088,3179.74
5.74251,3181.67
5.84409,3183.86
5.94566,3184.74
6.04724,3187.04
6.14892,3189.27
6.25049,3190.51
6.35207,3192.09
6.4537,3194.33
6.55523,3195.8
6.65686,3196.71
6.75844,3198.62
6.86006,3200.35
6.96164,3201.55
7.06322,3203.53
7.16484,3204.22
7.26647,3206.39
7.3681,3207.77
7.46963,3209.01
7.57125,3210.09
7.67293,3211.51
7.7745,3212.24
7.87608,3214.52
7.97771,3215.3
8.07924,3215.96
8.18082,3217.42
8.28254,3218.53
8.38407,3219.75
8.4857,3220.72
8.58723,3221.42
8.68881,3221.73
8.79043,3223.06
8.89206,3224.14
8.99359,3225.24
9.09517,3226.35
9.1968,3226.43
9.29842,3228.24
9.40005,3228.46
9.50167,3229.32
9.6032,3229.88
9.70478,3231.06
9.80646,3231.33
9.90808,3232.53
10.0096,3233.33
10.1112,3234.11
10.2127,3234.17
10.3144,3234.51
10.4161,3235.81
10.5176,3236.32
10.6192,3236.36
10.7208,3237.04
10.8224,3237.25
10.924,3237.71
11.0256,3238.68
11.1272,3239.12
11.2287,3238.78
11.3305,3239.92
11.4321,3240.51
11.5337,3240.24
11.6353,3240.98
11.7368,3241.43
11.8384,3241.58
11.94,3241.89
12.0416,3240.91
12.1431,3241.13
12.2448,3242.02
12.3463,3240.84
12.448,3241.29
12.5497,3241.08
12.6513,3240.34
12.7528,3240.25
12.8544,3239.58
12.956,3238.83
13.0576,3238.33
13.1593,3237.94
13.2609,3236.56
13.3625,3235.17
13.4641,3233.83
13.5657,3231.8
13.6673,3230.14
13.7689,3228.66
13.8704,3226.26
13.972,3223.29
14.0737,3220.15
14.1753,3217.23
14.2769,3213.65
14.3785,3209.27
14.4801,3204.62
14.5816,3199.65
14.6833,3194.22
14.7849,3187.49
14.8864,3181.29
14.9881,3173.99
15.0897,3165.88
15.1913,3155.92
15.2929,3145.06
15.3945,3133.04
15.496,3119.19
15.5977,3103.98
15.6993,3086.51
15.801,3065.38
15.9025,3041.62
16.0042,3013.28
16.1058,2979.77
16.2074,2938.64
16.3091,2884.72
16.4108,2787.89
16.4656,-1062.16