File: data/PrimaryData/Aluminium_6061/Tensile_test_3.csv
Displacement (mm),Load (N)
0.000306057,0.544333
0.00015732,2.3466
8.79805e-05,5.04121
0.000228241,9.38822
0.000364387,9.54702
0.000517099,15.0856
0.000626161,19.4746
0.000407585,29.2631
0.00109638,42.5417
0.00132272,57.1527
0.00129358,68.7258
0.00163347,87.5791
0.00200861,109.101
0.00281004,139.162
0.00296147,157.454
0.00293315,164.262
0.00285995,162.701
0.00305855,178.131
0.00342565,188.482
0.00319177,189.53
0.00303878,186.883
0.00344444,201.68
0.00373164,225.786
0.00393258,235.223
0.00425459,251.967
0.00438102,258.636
0.00458388,270.212
0.00482465,288.829
0.00506348,308.5
0.00534864,324.721
0.00571142,343.683
0.00605697,364.248
0.00625019,381.327
0.00644475,397.306
0.00673596,416.331
0.00737511,437.776
0.00754041,457.854
0.00805066,478.405
0.00871286,505.478
0.00837457,509.499
0.00915695,545.445
0.0095262,571.15
0.00995067,596.464
0.0104791,620.763
0.0109572,649.278
0.0113194,674.728
0.0114796,703.916
0.0121895,735.583
0.0126044,762.509
0.0131137,791.175
0.0135163,820.529
0.0143388,854.056
0.0147561,886.619
0.0151899,921.159
0.0157922,950.563
0.0165346,989.301
0.0168848,1024.89
0.0175026,1062.82
0.0183107,1099.51
0.0189856,1138.85
0.0195683,1179.19
0.020086,1213.24
0.0209196,1257.51
0.0214492,1291.65
0.022437,1340.7
0.0231424,1380.82
0.0235315,1418.4
0.0245945,1471.33
0.0248525,1502.09
0.0257078,1553.47
0.026446,1595.28
0.0271802,1637.04
0.0280087,1680.28
0.0286532,1723.71
0.0294684,1767.98
0.0302934,1811.47
0.0308769,1853.04
0.0315198,1897.23
0.03224,1940.25
0.0332792,1990.85
0.0338766,2036.99
0.0349256,2086.06
0.0360149,2142.76
0.0366847,2189.34
0.0374267,2240.18
0.038629,2295.91
0.0395154,2347.44
0.0401818,2402.74
0.041273,2455.3
0.0420982,2514.84
0.0431331,2570.68
0.0439679,2626.42
0.0450689,2688.89
0.0462218,2750.71
0.0472859,2810.99
0.0482149,2873.37
0.0493098,2936.19
0.0507747,3008.1
0.051539,3069.88
0.052633,3134.48
0.0538296,3201.23
0.0551373,3274.14
0.0562272,3341.1
0.0572748,3408.6
0.0588419,3482.3
0.0600686,3554.81
0.0611291,3625.11
0.0625852,3703.65
0.0639838,3779.49
0.0653389,3858.23
0.0664846,3934.23
0.0679172,4016.04
0.0690299,4091.26
0.0709898,4177.01
0.0721337,4259.57
0.0735318,4338.16
0.0750109,4422.26
0.0767446,4509.4
0.078304,4592.02
0.0794887,4680.55
0.081233,4771.26
0.0824128,4855.19
0.0842984,4948.55
0.0858253,5035.5
0.0872903,5129.16
0.0888939,5223.45
0.090815,5316.99
0.0924454,5411.36
0.0938837,5508.39
0.0955269,5603.98
0.0973474,5702.81
0.0994355,5802.11
0.101223,5903.28
0.103109,6002.06
0.105035,6106.52
0.10662,6208.42
0.108613,6309.56
0.11074,6415.21
0.112445,6520.7
0.114638,6628.01
0.116405,6737.95
0.118748,6849.53
0.120911,6956.65
0.12309,7071.42
0.124924,7184.04
0.127519,7296.81
0.12968,7414.73
0.136698,7761.35
0.144031,8091.09
0.152506,8419.15
0.162431,8736.71
0.173833,9043.57
0.187554,9326.87
0.20376,9580.64
0.223686,9812.24
0.246379,10014.5
0.273377,10187.3
0.303007,10331.3
0.336132,10454.8
0.372316,10560.2
0.411821,10648.9
0.452936,10723.7
0.496904,10787.2
0.541757,10843.4
0.588395,10897
0.636275,10946.8
0.68421,10985.9
0.732642,11029.6
0.781168,11068.8
0.830052,11107.8
0.879265,11145.7
0.928294,11180.3
0.976965,11217.3
1.02532,11250.3
1.0742,11286.1
1.12293,11320.1
1.17116,11354.7
1.2195,11386.7
1.2809,11417.3
1.36557,11451.5
1.4502,11481.3
1.53492,11513.8
1.61959,11543.1
1.70421,11572.9
1.78889,11601.3
1.8736,11629.9
1.95818,11662.5
2.0429,11687.1
2.12758,11716.1
2.21215,11742.5
2.29692,11765.5
2.38155,11797.2
2.46617,11821.7
2.55089,11843.5
2.63552,11869
2.7201,11897.4
2.80482,11920.9
2.88953,11943.2
2.97411,11967.4
3.05883,11988.6
3.1435,12013.1
3.22813,12032.3
3.31285,12055.2
3.39748,12075.6
3.4821,12096.8
3.56687,12114.8
3.65149,12133.2
3.73612,12154.6
3.82084,12172.6
3.90551,12193.8
3.99014,12206.7
4.07481,12229.6
4.15943,12243.1
4.24415,12259.6
4.32883,12278.9
4.4134,12292.3
4.49808,12307.1
4.58284,12323.8
4.66747,12338
4.75209,12354.4
4.83681,12366.5
4.92144,12380.5
5.00611,12394.7
5.09078,12410.7
5.17536,12419.6
5.26008,12428.1
5.34475,12444.4
5.42938,12456.9
5.51405,12465.4
5.59877,12478.3
5.6834,12488.5
5.76802,12499.9
5.85274,12509.5
5.93737,12517.1
6.02204,12528.5
6.10676,12536.9
6.19138,12545.4
6.27606,12554.1
6.36073,12561.3
6.4454,12568.5
6.53003,12578.3
6.61475,12585
6.69942,12593.1
6.784,12599.1
6.86872,12604.3
6.95344,12612.3
7.03802,12620.4
7.12269,12623.2
7.20741,12627.5
7.29208,12634.6
7.37675,12640.6
7.46142,12643.7
7.5461,12647
7.63072,12653.6
7.7154,12661.7
7.80007,12662.5
7.88474,12662.3
7.96941,12667.7
8.05404,12671.6
8.13871,12671.5
8.22338,12674
8.3081,12677.6
8.39268,12680.2
8.4774,12679.3
8.56207,12680.3
8.64675,12680
8.73137,12682
8.81604,12678.8
8.90076,12678.8
8.98539,12678.5
9.07006,12674.3
9.15473,12666.7
9.23941,12663.3
9.32403,12651.5
9.4087,12645.3
9.49338,12632.9
9.57805,12618.4
9.66281,12594.9
9.74735,12571.6
9.83207,12540.6
9.91679,12505.9
10.0014,12460.6
10.0861,12409.3
10.1708,12302.1
10.1848,12254.2