File: data/PrimaryData/Aluminium_6061/Tensile_test_1.csv
Displacement (mm),Load (N)
-6.25795e-05,0.258374
-9.76377e-05,3.7774
0.000197772,10.3044
0.000446094,16.8717
0.000593373,27.8941
0.000377475,36.8647
0.00078668,46.3417
0.00107185,58.8714
0.0017421,77.3566
0.00178117,100.491
0.00208874,123.175
0.00274688,149.888
0.00340148,179.051
0.00379778,209.629
0.00409047,240.114
0.00473953,273.208
0.00541244,310.284
0.00609711,344.885
0.00653409,382.492
0.00762813,420.547
0.00821965,458.449
0.00885839,501.88
0.0096554,541.254
0.0101576,580.233
0.0101556,573.539
0.00922922,514.264
0.00925335,515.848
0.00984761,537.241
0.0101952,559.761
0.0103232,587.214
0.0108707,610.879
0.0113277,636.664
0.0117595,665.195
0.0121878,688.565
0.0127539,715.6
0.0130691,744.636
0.013558,768.43
0.0140374,795.628
0.0144483,821.928
0.0147297,843.509
0.015058,860.626
0.0156095,881.052
0.0151396,859.615
0.0154395,886.799
0.0161803,921.466
0.016648,951.761
0.0171069,979.929
0.0176278,1004.8
0.0178562,1029.84
0.0183973,1054.79
0.0188918,1082.16
0.0192843,1109.76
0.0198652,1136.94
0.0201615,1164.81
0.0207491,1193.98
0.0211117,1223.3
0.0217138,1251.6
0.0221642,1284.6
0.0228937,1316.56
0.0235151,1350.44
0.0241634,1383.21
0.0247271,1415.94
0.0251654,1451.43
0.025733,1488.7
0.0266473,1522.08
0.0272187,1559.49
0.0278326,1596.04
0.0286659,1633
0.0290274,1672.19
0.0298477,1707.94
0.0305356,1749.89
0.0310806,1788.37
0.0318555,1831.31
0.0325281,1870.92
0.0334751,1915.08
0.0339606,1954.95
0.0345161,1999.47
0.0354833,2045.1
0.0364032,2087.85
0.0370493,2132.69
0.038288,2180.07
0.0388878,2226.75
0.0396408,2274.61
0.0406655,2322.09
0.0412935,2368.74
0.0423622,2421.18
0.0431137,2474.25
0.0441595,2531.3
0.0452414,2581.42
0.0459673,2633.86
0.0473208,2689.17
0.0481983,2745.41
0.0491218,2800.72
0.0501947,2854.97
0.0514046,2914.79
0.0524188,2972.84
0.0532635,3029.62
0.0546309,3091.02
0.0556078,3148.27
0.0564824,3208.63
0.05794,3271.15
0.0588,3330.75
0.060121,3394.22
0.061306,3458.08
0.0623843,3521.39
0.0635539,3586.7
0.0650225,3651.64
0.0662678,3720.42
0.0674848,3786.16
0.0688266,3854.6
0.0701899,3923.36
0.0714542,3994.64
0.0728915,4063.77
0.0740176,4134.98
0.0755636,4208.15
0.0769523,4280.18
0.0782244,4353
0.0795624,4429.99
0.0812407,4503.65
0.082917,4581.24
0.0845764,4658.27
0.0861489,4736.9
0.0876984,4812.95
0.0891235,4891.67
0.0907988,4968.53
0.0926304,5047.17
0.0946139,5129.44
0.0962824,5214.06
0.0982163,5296
0.0999887,5378.79
0.101991,5460.08
0.103695,5541.42
0.106044,5626.63
0.108651,5711.12
0.110898,5794.73
0.113242,5877.46
0.115686,5964.45
0.118555,6048.77
0.121325,6134.96
0.124331,6220.89
0.127491,6302.71
0.13059,6385.38
0.133742,6466.53
0.137569,6548.81
0.141382,6631.42
0.145448,6707.18
0.149608,6786.04
0.154235,6862.62
0.158672,6938.33
0.163941,7014.97
0.168998,7084.68
0.174444,7154.96
0.180336,7224.89
0.186431,7293.52
0.192988,7357.11
0.199669,7419.14
0.218375,7626.28
0.247633,7777.55
0.276801,7915.66
0.307802,8032.16
0.341385,8131.9
0.377566,8215.07
0.415779,8288.11
0.455285,8353.85
0.497234,8412.31
0.539993,8462.64
0.583358,8509.44
0.627628,8551.56
0.672361,8594.96
0.717515,8634.01
0.763266,8671.77
0.80864,8706.79
0.854444,8742.34
0.900137,8776.7
0.946047,8810.84
0.991941,8843.92
1.03765,8876.39
1.08306,8909.22
1.12844,8939.63
1.17396,8972.54
1.21923,9000.4
1.27481,9030.43
1.35249,9059.76
1.43013,9090.89
1.50754,9120.72
1.58527,9144.92
1.66301,9174.09
1.74046,9201.22
1.81815,9228.8
1.89579,9256.72
1.97324,9282.02
2.05092,9307.98
2.12861,9333.74
2.20602,9358.88
2.28375,9381.47
2.36148,9407.73
2.43894,9430.99
2.51662,9455.1
2.59426,9478.8
2.67172,9502.75
2.74945,9520.93
2.82714,9544.69
2.90459,9566.64
2.98218,9588.35
3.05991,9608.83
3.13732,9629.57
3.2151,9648.375
3.29269,9668.17
3.37019,9691.31
3.44783,9709.65
3.52557,9726.09
3.60302,9747.07
3.68066,9765.38
3.75835,9782.87
3.8358,9799.07
3.91353,9817.24
3.99126,9831.85
4.06872,9849.98
4.14636,9866.94
4.224,9881.34
4.30154,9896.93
4.37914,9911.67
4.45687,9927.27
4.53423,9941.18
4.61196,9955.26
4.6897,9968
4.76715,9980.51
4.84483,9996.6
4.92247,10009.1
4.99993,10020.9
5.07761,10032.5
5.15535,10045.8
5.2328,10056
5.31044,10068.4
5.38817,10077.2
5.46567,10087.9
5.54336,10100.7
5.62095,10112.4
5.69845,10121.6
5.77614,10129
5.85387,10141.5
5.93132,10149.8
6.00896,10159.1
6.08665,10169.3
6.1641,10174.4
6.24184,10182.3
6.31948,10192
6.39698,10198.9
6.47457,10206.3
6.5523,10214.4
6.62976,10220.6
6.70744,10227.6
6.78513,10235.1
6.86253,10240.1
6.94031,10243.2
7.01795,10251.1
7.09545,10258.4
7.17309,10264.5
7.25083,10268
7.32833,10273
7.40597,10277.2
7.4837,10281.6
7.56106,10287.1
7.63874,10290.6
7.71643,10291
7.79398,10298.4
7.87157,10302.6
7.9493,10305
8.02676,10306.1
8.10449,10310.5
8.18213,10310.8
8.25963,10314.3
8.33722,10318.6
8.41496,10316.2
8.49245,10317.9
8.57014,10320.6
8.64778,10322.2
8.72528,10322.5
8.80292,10322.5
8.88065,10319.4
8.95806,10318
9.03575,10318.7
9.11334,10314.6
9.19093,10309.8
9.26862,10305.7
9.34635,10298.8
9.4238,10290.8
9.50149,10280.6
9.57913,10266.9
9.65663,10251.8
9.73432,10233
9.81191,10207.6
9.88941,10178.2
9.96714,10122.2
10.0308,4013.74