File: data/PrimaryData/Aluminium_6061/Tensile_004.csv
Displacement (mm),Load (N)
0.000627159,0.643013
0.000488768,1.1726
0.00059556,1.74095
0.000639157,4.04841
0.000465898,6.7725
0.000732228,9.44276
0.00054868,9.59762
0.000823058,14.5241
0.00106103,20.8517
0.000987051,29.0628
0.00100323,37.7585
0.00129857,48.2867
0.00120162,60.0684
0.00195376,77.0684
0.00198668,97.4318
0.00229135,120.671
0.00313633,143.279
0.00335399,167.608
0.00394465,196.153
0.00450181,226.513
0.00478543,257.375
0.00530871,290.137
0.00603881,323.444
0.00666714,356.857
0.0074351,394.664
0.00790301,432.429
0.00839497,466.336
0.00906075,504.428
0.00968427,535.206
0.0104037,567.731
0.0107921,591.387
0.0110449,605.032
0.0109885,609.034
0.0112035,620.369
0.0114474,623.995
0.0112156,610.373
0.0109932,602.458
0.011391,611.523
0.0117453,624.993
0.0120406,639.492
0.0124377,658.163
0.0125268,673.304
0.0131363,686.971
0.0129696,704.901
0.0137303,722.607
0.014033,739.575
0.0142204,756.882
0.0147995,778.24
0.0152097,801.151
0.0156405,822.867
0.015824,847.838
0.0165064,871.013
0.0172292,895.723
0.0174137,920.03
0.0177266,945.164
0.0186533,973.469
0.0189125,1001.63
0.0195457,1028.83
0.0202555,1057.82
0.0205844,1087.94
0.0210484,1118.67
0.0219262,1150.57
0.0223271,1180.78
0.0230765,1210.8
0.0237006,1243.94
0.0242909,1277.85
0.0249369,1315.23
0.0256064,1350.21
0.0264131,1384.51
0.0269772,1423.98
0.0277214,1463.13
0.0284487,1498.4
0.0292003,1538.7
0.0300939,1577.56
0.0306532,1618.52
0.0315733,1659.76
0.0322739,1698.91
0.0333217,1746.44
0.0340156,1784.42
0.0350872,1832.64
0.0357727,1876.78
0.0367328,1923.46
0.0377514,1970.31
0.0385546,2016.56
0.0394089,2065.51
0.0403411,2115.31
0.0413209,2161.92
0.0423608,2211.14
0.0434552,2265.95
0.0443962,2317.73
0.0456262,2368.48
0.0467108,2421.62
0.0475094,2477.57
0.0487261,2531.85
0.050021,2596.31
0.0510366,2648.78
0.0521768,2706.43
0.0533633,2764.62
0.0544831,2823.03
0.0559368,2884.44
0.057121,2945.23
0.0584956,3007.22
0.0598964,3070.36
0.0611884,3133.79
0.0623888,3193.7
0.0639278,3257.91
0.0653083,3325.19
0.0669554,3391.71
0.0684807,3457.41
0.0696523,3525.3
0.0712583,3595.35
0.0730309,3659.58
0.0745233,3730.03
0.0763415,3797.69
0.0778748,3868.69
0.0797102,3938.46
0.0815721,4009.97
0.0836021,4082.1
0.0853439,4154.3
0.0875258,4224.23
0.0896318,4297.69
0.0919509,4370.88
0.094029,4442.24
0.0966396,4518.66
0.0992709,4591.62
0.101746,4661.65
0.104575,4734.15
0.107343,4807.41
0.110133,4878.65
0.113511,4952.34
0.11661,5019.53
0.120122,5090.45
0.123844,5154.75
0.127455,5223.33
0.131809,5294.13
0.136429,5359.94
0.140593,5422.73
0.145276,5485.51
0.150418,5545.86
0.155502,5606.32
0.161384,5664.49
0.166906,5718.98
0.173007,5771.28
0.179262,5819.66
0.185772,5872.49
0.19239,5919.33
0.199781,5967.76
0.206947,6009.79
0.214731,6051.13
0.222368,6091.84
0.230283,6130.7
0.238837,6166.67
0.247405,6199.08
0.256352,6235.12
0.265225,6265.96
0.274167,6295.19
0.283709,6324.36
0.29369,6353.31
0.303652,6377.93
0.313501,6402.06
0.32386,6426.18
0.334327,6451.09
0.349028,6570.93
0.394997,6605.29
0.440469,6655.61
0.484977,6706.89
0.530116,6752.05
0.575355,6795.76
0.620614,6835.48
0.666216,6874.94
0.711807,6912.48
0.757194,6948.39
0.803147,6982.81
0.849173,7018.6
0.894788,7053.33
0.940211,7085.86
0.985618,7116.86
1.03105,7150.44
1.07662,7182.19
1.12196,7210.73
1.16747,7242.74
1.21234,7271.6
1.26322,7301.13
1.34067,7331.17
1.41831,7360.86
1.49609,7387.85
1.57354,7416.03
1.65123,7444.33
1.72887,7469.2
1.80637,7495.8
1.88396,7522.17
1.96169,7548.62
2.03919,7572.72
2.11688,7597.7
2.19457,7622.41
2.27202,7645.22
2.34961,7670.3
2.42735,7693.88
2.5048,7715.84
2.58244,7737.91
2.66017,7760.13
2.73772,7780.95
2.81536,7802.39
2.89304,7824.49
2.9705,7844.27
3.04818,7862.87
3.12578,7885.21
3.20332,7902.53
3.28092,7921.32
3.3586,7941.68
3.43615,7959.22
3.51379,7974.82
3.59143,7993.7
3.66893,8011.19
3.74661,8026.56
3.8243,8042.64
3.9018,8059.91
3.97949,8073.36
4.05713,8089.7
4.13458,8104.01
4.21231,8117.2
4.29004,8132.27
4.36745,8147.89
4.44518,8161.25
4.52273,8174.55
4.60028,8187.1
4.67796,8200.02
4.75565,8210.4
4.8331,8221.51
4.91074,8233.79
4.98848,8246.38
5.06593,8257.33
5.14366,8268.63
5.2213,8276.26
5.2988,8287.6
5.37644,8298.01
5.45413,8308.49
5.53158,8317.2
5.60922,8325.69
5.68695,8333.31
5.76441,8341.86
5.84209,8351.63
5.91978,8358.78
5.99723,8368.57
6.07497,8374.61
6.15265,8381.15
6.2301,8389.74
6.30775,8396.33
6.38548,8400.07
6.46288,8408.05
6.54062,8414.78
6.61826,8420.29
6.69571,8427.41
6.7734,8431.68
6.85113,8433.22
6.92858,8439.02
7.00622,8445.64
7.08391,8449.74
7.16136,8451.45
7.23909,8457.01
7.31683,8459.67
7.39428,8462.6
7.47197,8467.53
7.54956,8468.53
7.62711,8469.75
7.7047,8474.09
7.78243,8475.92
7.85984,8474.39
7.93762,8477.66
8.01526,8476.3
8.09271,8476.39
8.1704,8475.98
8.24808,8475.45
8.32558,8472.97
8.40327,8467.6
8.48096,8466.24
8.55841,8458.78
8.6361,8450.06
8.71378,8442.5
8.79128,8427.95
8.86897,8414.19
8.94661,8396.73
9.02406,8374.57
9.10175,8347.78
9.17948,8316.52
9.25689,8277.27
9.33462,8226.61
9.41231,8138.58
9.45474,7720.43