File: data/PrimaryData/Aluminium_6061/Tensile_test_5.csv
Displacement (mm),Load (N)
0.000200773,0.216887
0.000329026,3.77009
0.000455207,8.62765
0.000608095,12.8586
0.000571199,19.9983
0.000815707,29.1727
0.000809521,41.1193
0.000970871,57.4241
0.00150003,73.1228
0.00165587,89.9635
0.00209196,108.073
0.00264066,131.483
0.00281302,159.499
0.0032983,186.483
0.00383004,213.485
0.00452436,245.899
0.00475493,279.369
0.00546009,313.607
0.00644897,350.811
0.00676433,389.179
0.00745242,423.098
0.00813344,459.985
0.00848443,495.793
0.0087882,526.691
0.00943902,545.744
0.00927917,538.046
0.00949276,550.698
0.00975618,568.603
0.0100337,591.33
0.0104527,609.9
0.0109246,635.301
0.0115224,658.335
0.0118245,683.716
0.012415,710.812
0.0127227,736.819
0.013291,766.924
0.0141036,799.149
0.0144036,826.631
0.0151426,861.27
0.0157394,897.282
0.016322,927.997
0.0170609,966.092
0.017528,1003.43
0.0183278,1042.49
0.0189021,1081.98
0.0195642,1122.88
0.0203134,1162.25
0.0211891,1205.33
0.0216578,1247.29
0.0227209,1293.68
0.0234005,1339.69
0.0244313,1385.11
0.0252849,1433.28
0.0260171,1478.29
0.0267282,1528.07
0.0276622,1576.44
0.0286746,1628.46
0.0293701,1675.52
0.0303075,1726.61
0.0311968,1778.54
0.032207,1833.37
0.0329541,1887.05
0.0340333,1941.42
0.0349808,1992.57
0.035944,2051.42
0.0369651,2109.94
0.038066,2165.8
0.0389901,2222.1
0.040179,2283.19
0.0411786,2341.95
0.0419972,2395.52
0.0435116,2454.62
0.0440104,2504.98
0.0450062,2561.95
0.0458412,2610.42
0.0470816,2662.08
0.0478564,2709.19
0.0488361,2759.02
0.0496858,2806.39
0.0504845,2856.16
0.0514749,2903.25
0.0523445,2952.71
0.0531284,3002.93
0.0539999,3048.5
0.0549396,3097.11
0.0557486,3147.28
0.0564711,3199.33
0.0577455,3252.05
0.0582047,3301.09
0.0595161,3354.87
0.0606352,3409.89
0.0619792,3487.51
0.0630523,3528.73
0.0637674,3585.13
0.0648608,3641.64
0.0659804,3702.5
0.0671017,3761.92
0.0682856,3822.4
0.0694034,3883.67
0.0706607,3947.25
0.0719919,4011
0.0733167,4074.67
0.0742445,4138.65
0.0756502,4202.67
0.076974,4269.18
0.0782506,4336.51
0.0794863,4405.11
0.0807345,4475.72
0.0823193,4546.22
0.0835662,4615.81
0.0850287,4689.86
0.0863773,4761.53
0.0880768,4833.97
0.0895993,4908.87
0.0911496,4984.63
0.09283,5061.21
0.0946032,5137.25
0.0960424,5213.93
0.0980605,5292.49
0.0994754,5371.25
0.10148,5450.61
0.103449,5531.82
0.105301,5612.68
0.10763,5692.67
0.109464,5773.68
0.111846,5852.86
0.114231,5935.43
0.116423,6018.16
0.118846,6101.65
0.121317,6182.82
0.123993,6263
0.126713,6345.09
0.129489,6424.86
0.132543,6505.93
0.136003,6586.59
0.13925,6665.85
0.142824,6743.9
0.146576,6821.65
0.150687,6897.45
0.154974,6972.42
0.159153,7044.81
0.164397,7116.08
0.168819,7185.28
0.174434,7250.78
0.180096,7315.02
0.185696,7379.31
0.192356,7438.74
0.198782,7496.75
0.205495,7552.19
0.212394,7604.48
0.22003,7655.46
0.227965,7705.73
0.235757,7748.61
0.243966,7792.76
0.252981,7835.41
0.261801,7875.64
0.270989,7912.39
0.280583,7949.5
0.296536,8108.9
0.339583,8161.23
0.382531,8240.17
0.42547,8305.84
0.469366,8367.03
0.513763,8419.3
0.559418,8464.64
0.60514,8507.74
0.651673,8550.15
0.697672,8587.87
0.744147,8627.64
0.790502,8663.9
0.837111,8697.31
0.883355,8732.47
0.929221,8767.49
0.974967,8799.11
1.02099,8829.69
1.06682,8864.08
1.11251,8894.98
1.15802,8924.86
1.20363,8958.3
1.2491,8987.52
1.32576,9015.76
1.40344,9045.58
1.48108,9075.28
1.55854,9100.85
1.63627,9130.31
1.71396,9157.57
1.79141,9185.3
1.86914,9211.23
1.94674,9238.41
2.02428,9263.02
2.10188,9288.64
2.17961,9314.98
2.25697,9338.91
2.33475,9362.88
2.41239,9386.26
2.48989,9409.19
2.56757,9433.67
2.64526,9456.04
2.72267,9476.97
2.80035,9498.38
2.87804,9521.68
2.95549,9541.57
3.03318,9561.38
3.11087,9581.35
3.18832,9602.73
3.26605,9621.87
3.34369,9641.43
3.42119,9659.01
3.49883,9676.4
3.57656,9694.97
3.65397,9712.58
3.73166,9728.77
3.80934,9746.81
3.8868,9763.89
3.96448,9779.82
4.04217,9794.31
4.11967,9811.48
4.19726,9825.31
4.27499,9840.54
4.35249,9856.25
4.43018,9869.35
4.50787,9882.1
4.58527,9897.33
4.66296,9910.5
4.74065,9922.38
4.81815,9933.44
4.89579,9948.36
4.97347,9958.93
5.05097,9968.52
5.12856,9982.12
5.2063,9991.6
5.2837,10002.8
5.36144,10013.3
5.43908,10022.7
5.51667,10031.9
5.59426,10043.8
5.672,10054.5
5.74945,10062.2
5.82713,10072.3
5.90477,10080.3
5.98223,10086.7
6.05992,10095.3
6.13755,10103.7
6.2151,10111.7
6.29279,10118.3
6.37043,10126.9
6.44797,10133.1
6.52561,10138.7
6.60335,10144.3
6.6808,10150.7
6.75849,10156.3
6.83608,10162.5
6.91367,10168
6.99131,10170.8
7.069,10176.6
7.14645,10182.1
7.22409,10184.9
7.30173,10191.2
7.37923,10193.6
7.45696,10197
7.53456,10200.2
7.61201,10202.4
7.68979,10205.5
7.76743,10207.3
7.84493,10211.3
7.92257,10211.6
8.0003,10212.2
8.07766,10213.8
8.15549,10211.5
8.23308,10210.8
8.31058,10212.1
8.38827,10210.2
8.46595,10204.6
8.54345,10200.3
8.62109,10196.4
8.69883,10188.1
8.77623,10178
8.85396,10168.4
8.93165,10152.3
9.0091,10134.8
9.08679,10114.2
9.16448,10084.8
9.24198,10055.3
9.31962,10014.5
9.39735,9950.7
9.45366,9494.18