File: data/PrimaryData/Aluminium_6061/Tensile_002.csv
Displacement (mm),Load (N)
5.22853e-05,4.49155
0.000766889,12.6488
5.59256e-05,12.5419
6.27691e-05,20.6068
0.000616967,31.5532
0.000788332,38.6436
0.000728829,51.9941
0.00105369,66.9398
0.00147607,83.056
0.00174764,99.0074
0.0019543,119.303
0.00266141,145.959
0.00305164,173.456
0.00337576,196.726
0.00357319,227.297
0.00450477,261
0.00479542,289.903
0.00537839,318.451
0.0059696,355.621
0.00654035,387.391
0.00705437,417.254
0.00755103,448.139
0.00789849,468.199
0.00771974,466.583
0.00763914,453.19
0.00737164,447.389
0.00770691,456.427
0.00784806,466.398
0.00789742,484.246
0.00851415,500.255
0.00846666,516.747
0.008756,532.376
0.009076,552.421
0.0093675,572.199
0.00972418,586.423
0.00973435,596.077
0.0101349,610.423
0.0104213,627.244
0.0106658,647.891
0.0106029,670.878
0.0114987,698.506
0.0116965,719.409
0.0125186,744.528
0.0125783,770.074
0.0131081,788.701
0.0134864,812.221
0.0135869,837.178
0.0143729,861.332
0.0146901,881.079
0.0149016,906.651
0.0151072,931.3
0.0155866,955.547
0.0158025,982.43
0.016048,1008.33
0.0167127,1035.5
0.0173453,1061.36
0.0177136,1089.1
0.0178592,1118.52
0.0189318,1152.54
0.0187721,1178.32
0.0193586,1202.95
0.0198799,1232.82
0.0203762,1264.81
0.0210964,1296.18
0.0215773,1325.91
0.0218686,1357.91
0.0224267,1392.02
0.0232119,1427.91
0.0236544,1459.03
0.0243606,1493.62
0.0249927,1529.06
0.0256505,1566.51
0.0262098,1600.63
0.0267683,1635.84
0.027426,1677.2
0.0282174,1715.91
0.0288654,1751.29
0.0293692,1792.69
0.0302204,1832.47
0.031056,1872.37
0.0316874,1912
0.0324563,1953.9
0.0334521,1997.44
0.0338476,2038.96
0.0347665,2083.01
0.03555,2129.16
0.036296,2170.4
0.0373439,2218.97
0.0381057,2265.64
0.0387941,2310.82
0.0398121,2360.99
0.0409592,2407.74
0.0415734,2453.23
0.0426062,2504.84
0.0438318,2570.25
0.0445485,2612.31
0.0455611,2662.41
0.0464939,2715.42
0.0473823,2766.03
0.0486683,2817.49
0.049464,2868.83
0.0505754,2927.03
0.0514007,2980.97
0.0527315,3037.34
0.0541335,3095.58
0.0547741,3156.53
0.0555737,3209.67
0.0573251,3271.94
0.0587365,3331.16
0.0597527,3390.35
0.0612046,3450.89
0.0624998,3513.53
0.0637549,3573.88
0.0650738,3635.85
0.066509,3699.32
0.0683031,3767.06
0.0693118,3830.53
0.070755,3895.74
0.0724146,3965.17
0.0739095,4028.11
0.0754706,4096.55
0.0771377,4165.04
0.078902,4227.55
0.0802408,4297.56
0.0819615,4364.31
0.0837837,4431.4
0.0855357,4499.68
0.0874077,4566.52
0.088944,4634.35
0.0909067,4708.23
0.0931789,4779.7
0.0950614,4849.84
0.0971004,4920.41
0.0994254,4991.6
0.101212,5061.83
0.103383,5130.46
0.106347,5196.48
0.108318,5277.06
0.111268,5342.92
0.11361,5422.51
0.116011,5489.89
0.118917,5563.11
0.121858,5632.5
0.1248,5704.16
0.128262,5774.68
0.131408,5842.35
0.134752,5907.17
0.138351,5973.28
0.142139,6038.15
0.146545,6097.05
0.150851,6165.45
0.155238,6226.48
0.159874,6284.94
0.164723,6341.74
0.169928,6401.23
0.175334,6453.71
0.181193,6504.84
0.187326,6552.97
0.193702,6602.89
0.200877,6650.26
0.207947,6694.78
0.21513,6736.46
0.222983,6777.13
0.231087,6818.06
0.238969,6850.18
0.247371,6887.07
0.256387,6920.76
0.265536,6951.64
0.274855,6980.34
0.294629,7123.77
0.335523,7169.75
0.376626,7239.5
0.417547,7295.58
0.459241,7348.96
0.501218,7398.21
0.543679,7436.66
0.586508,7479.79
0.629566,7518.37
0.672745,7555.04
0.716082,7590.78
0.759182,7624.33
0.802057,7656.27
0.845209,7690.67
0.888212,7720.59
0.93081,7751.36
0.973203,7783.45
1.01544,7813.5
1.05754,7842.73
1.09994,7872.35
1.14204,7898.19
1.18391,7929.18
1.22591,7955.65
1.2679,7982.31
1.31019,8010.17
1.35174,8037.96
1.39387,8065.3
1.43501,8089.26
1.47659,8114.71
1.51846,8141.25
1.56018,8164.83
1.60204,8188.18
1.64352,8210.9
1.68487,8235.64
1.7267,8258.41
1.76823,8283
1.81,8304.43
1.8523,8329.68
1.89369,8346.21
1.93604,8370.48
1.97815,8391.96
2.02024,8409.31
2.06225,8429.19
2.10457,8450.44
2.14662,8467.92
2.18914,8486.28
2.23193,8507.19
2.2743,8522.61
2.31654,8542
2.35947,8559.27
2.40228,8574.82
2.44512,8595
2.48793,8607.31
2.53076,8624.81
2.57393,8639.47
2.61677,8655.63
2.66048,8672.82
2.70404,8685.41
2.74756,8699.11
2.79071,8714.31
2.83465,8730.48
2.87938,8743.49
2.92338,8755.61
2.9667,8767.93
3.0109,8778.15
3.05486,8794.66
3.0995,8804.17
3.14415,8814.39
3.18883,8828.08
3.23344,8837.13
3.27794,8847.62
3.3227,8860.46
3.36786,8866.67
3.41304,8877.7
3.45827,8889.08
3.5036,8896.14
3.54902,8904.37
3.59504,8914.01
3.64113,8925.33
3.68743,8930.54
3.73348,8938.31
3.78034,8948.95
3.82693,8955.87
3.87385,8962.28
3.92072,8968.34
3.96793,8974.16
4.01547,8982.1
4.06314,8991.11
4.11099,8995.29
4.15958,9001.81
4.2081,9007.85
4.2566,9010.79
4.30582,9016.66
4.35508,9022.72
4.40496,9025.78
4.45457,9031.53
4.5053,9034.08
4.55599,9039.56
4.60723,9043.62
4.65882,9046.2
4.71111,9049.86
4.76351,9051.51
4.81651,9052.91
4.87034,9058.58
4.9249,9060
4.97978,9058.07
5.03501,9061.43
5.09041,9060.28
5.14785,9061.44
5.20572,9061.95
5.26456,9055.8
5.32428,9053.16
5.38477,9051.36
5.44658,9044.06
5.50958,9036.94
5.5738,9028.64
5.63877,9018.09
5.70407,9004.42
5.77129,8988.98
5.83965,8971.48
5.90873,8945.41
5.97899,8918
6.04899,8887.52
6.12004,8849.05
6.19203,8803.39
6.26459,8753.83
6.33811,8690.81
6.41227,8620.06
6.48661,8537.46
6.56277,8420.85
9.52636,-4906.96