File: data/ReportRaw/Resin_TXT/Unknown_Resin/Tensile_Test_02.txt
Program Started: Tue, Jul 16, 2024	1:13:32 PM	System: µTS4
Test Notes:

User displacement limits active. Low limit -20.000E-3 m, high limit 20.000E-3 m.
User load limits active. Low limit -1.600E+3 N, high limit 1.600E+3 N.

No closed loop control sensors in this test.

Test Segments:
 1. Ramp in Drive Control, +5.00E-3m Amplitude, 10.00E-6 m/s Speed. Sampling at 20.000 Hz, Lowpass Filter Cutoff of 100.000 Hz

Specimen Thickness (m): 	1.550E-3
Specimen Width (m): 	1.910E-3
Specimen Diameter (m): 	0.000E+0
Specimen Area (m^2): 	2.960E-6
Specimen Length (m): 	5.000E-3

Test Started: Tue, Jul 16, 2024	2:16:47 PM
Time (s)	LCFS1600 (N)	LCW1600 (N)	ECATENC (m)	SpecTemp (C)	AirTemp (C)	OutletTemp (C)	JTemp1600 (C)	GTemp1600 (C)	CUR (A)	Ve (V)	Trigger (#)
0.0000000000E+0	-0.223924	-0.205836	-8.46349e-10	25.1763	25.2851	25.0675	32.8707	0.510711	0.0667131	10.1463	-1
2.8	0.828813	0.867049	2.64149e-05	25.175	25.2836	25.0664	32.8722	0.510963	0.187056	10.1463	-1
5.6	2.06887	1.98462	5.44116e-05	25.1594	25.274	25.0448	32.8694	0.5099	0.215924	10.1466	-1
8.4	3.32471	3.33812	8.23903e-05	25.1636	25.2697	25.0575	32.8711	0.511066	0.140791	10.1469	-1
11.2	4.96758	4.97924	0.000110385	25.1685	25.2805	25.0565	32.8717	0.508659	0.189924	10.1468	-1
14	6.71462	6.78922	0.000138399	25.1648	25.2831	25.0465	32.8725	0.510956	0.22475	10.1466	-1
16.8	8.98109	8.88906	0.000166389	25.1869	25.304	25.0698	32.8703	0.51021	0.25971	10.1466	-1
19.6	11.2889	11.3717	0.0001944	25.1737	25.2874	25.0601	32.8711	0.509922	0.246507	10.147	-1
22.4	14.1552	14.2127	0.00022238	25.1699	25.269	25.0709	32.8725	0.509512	0.304068	10.1468	-1
25.2	17.2425	17.3326	0.000250391	25.1696	25.2952	25.0439	32.8715	0.509609	0.163209	10.1471	-1
28	20.2708	20.3411	0.00027838	25.1753	25.2732	25.0774	32.872	0.508723	0.252613	10.1474	-1
30.8	23.569	23.5711	0.000306344	25.1584	25.2735	25.0433	32.8721	0.50972	0.26445	10.1471	-1
33.6	26.7538	26.7623	0.000334363	25.1708	25.2762	25.0654	32.8714	0.509951	0.269744	10.1477	-1
36.4	30.194	30.271	0.000362368	25.1688	25.2865	25.0512	32.8725	0.508389	0.293036	10.1476	-1
39.2	33.825	Inf	0.000390363	25.1508	25.2718	25.0299	32.8717	0.51038	0.213703	10.1478	-1
42	36.8125	Inf	0.000418274	25.1756	25.2956	25.0557	32.8738	0.509426	0.166734	10.1483	-1
44.8	39.4552	Inf	0.000446277	25.1729	25.2774	25.0685	32.8717	0.509056	0.226057	10.1479	-1
47.6	42.1139	Inf	0.00047427	25.1714	25.2889	25.0538	32.8723	0.50923	0.2998	10.1482	-1
50.4	45.1076	Inf	0.000502256	25.1795	25.283	25.076	32.8727	0.509791	0.31848	10.1481	-1
53.2	47.8586	Inf	0.000530266	25.1738	25.2796	25.0681	32.8717	0.510481	0.314836	10.1484	-1
56	50.8308	Inf	0.000558264	25.168	25.2715	25.0645	32.8722	0.510031	0.360341	10.1484	-1
58.8	53.9601	Inf	0.00058625	25.1719	25.2955	25.0483	32.8733	0.509557	0.255877	10.1481	-1
61.6	57.5005	Inf	0.000614235	25.1693	25.2795	25.059	32.8735	0.509446	0.396786	10.1485	-1
64.4	61.0946	Inf	0.000642241	25.1629	25.2826	25.0433	32.8736	0.509622	0.407408	10.148	-1
67.2	65.1262	Inf	0.00067022	25.1666	25.2766	25.0565	32.8738	0.50993	0.52866	10.148	-1
70	68.9158	Inf	0.000698288	25.1655	25.2773	25.0537	32.8742	0.509934	0.610382	10.1484	-1
72.8	72.1898	Inf	0.000726225	25.1601	25.2656	25.0545	32.8747	0.51012	0.550962	10.1483	-1
75.6	75.4935	Inf	0.000754265	25.1711	25.2818	25.0604	32.8736	0.509753	0.515438	10.1484	-1
78.4	78.3312	Inf	0.000782239	25.1698	25.2808	25.0587	32.8747	0.509482	0.685094	10.1483	-1
81.2	80.4834	Inf	0.000810263	25.1758	25.287	25.0646	32.8739	0.51092	0.610113	10.148	-1
84	83.0727	Inf	0.000838234	25.1696	25.2792	25.0599	32.8739	0.510064	0.671707	10.148	-1
86.8	85.272	Inf	0.000866259	25.1689	25.2729	25.0649	32.8738	0.510056	0.699774	10.148	-1
89.6	86.7856	Inf	0.000894233	25.1713	25.2741	25.0686	32.8749	0.509316	0.62256	10.148	-1
92.4	88.2067	Inf	0.000922255	25.1678	25.2783	25.0574	32.8739	0.510134	0.515317	10.148	-1
95.2	89.0439	Inf	0.000950225	25.1549	25.2547	25.0551	32.875	0.509887	0.562825	10.1481	-1
98	89.934	Inf	0.000978223	25.1673	25.2668	25.0677	32.8748	0.509906	0.560561	10.1481	-1
100.8	90.2117	Inf	0.00100624	25.1828	25.2835	25.0822	32.8744	0.509927	0.45529	10.1482	-1
103.6	90.6312	Inf	0.00103422	25.1686	25.2805	25.0566	32.8745	0.510312	0.514762	10.1482	-1
106.4	90.9013	Inf	0.0010622	25.169	25.272	25.0661	32.8765	0.509681	0.424434	10.1476	-1
109.2	90.9712	Inf	0.00109018	25.1672	25.2679	25.0665	32.876	0.510887	0.481372	10.1476	-1
112	90.7844	Inf	0.00111819	25.1728	25.2849	25.0607	32.8753	0.510498	0.493346	10.1478	-1
114.8	90.3226	Inf	0.00114621	25.1663	25.2796	25.053	32.8749	0.510547	0.505125	10.1478	-1
117.6	89.794	Inf	0.00117419	25.1868	25.292	25.0817	32.8759	0.51062	0.525975	10.1479	-1
120.4	89.2479	Inf	0.00120216	25.1828	25.2872	25.0783	32.8766	0.510224	0.4644	10.1482	-1
123.2	88.8981	Inf	0.00123017	25.1678	25.2751	25.0604	32.8768	0.510939	0.449214	10.1478	-1
126	88.5442	Inf	0.00125815	25.171	25.2818	25.0602	32.8757	0.510019	0.38297	10.1477	-1
128.8	88.3836	Inf	0.00128615	25.1837	25.2828	25.0845	32.8762	0.509855	0.486741	10.1477	-1
131.6	88.0993	Inf	0.00131417	25.1716	25.2752	25.0681	32.8773	0.510864	0.491129	10.1484	-1
134.4	87.97	Inf	0.00134209	25.1651	25.2711	25.0592	32.8773	0.511006	0.407438	10.1478	-1
137.2	87.7605	Inf	0.0013701	25.1765	25.271	25.082	32.8771	0.510824	0.36457	10.1477	-1
140	87.5723	Inf	0.0013981	25.1649	25.2659	25.0639	32.8772	0.509834	0.330445	10.1482	-1
142.8	87.4771	Inf	0.00142606	25.1927	25.3012	25.0843	32.8774	0.510733	0.360905	10.1479	-1
145.6	87.2518	Inf	0.00145406	25.1905	25.2884	25.0926	32.8779	0.510538	0.496201	10.1481	-1
148.4	87.2289	Inf	0.00148208	25.1907	25.2977	25.0836	32.8766	0.511012	0.452446	10.1483	-1
151.2	87.0781	Inf	0.00151006	25.1788	25.2677	25.09	32.876	0.511413	0.463253	10.1479	-1
154	87.1223	Inf	0.00153803	25.1753	25.2798	25.0707	32.8789	0.511196	0.470945	10.1479	-1
156.8	87.0251	Inf	0.00156603	25.1927	25.2908	25.0945	32.8765	0.51096	0.476223	10.1486	-1
159.6	87.2257	Inf	0.00159405	25.1639	25.2725	25.0552	32.8776	0.509635	0.462914	10.1479	-1
162.4	87.2937	Inf	0.0016221	25.1888	25.2909	25.0867	32.8765	0.509932	0.595064	10.1477	-1
165.2	87.577	Inf	0.00165009	25.1841	25.2825	25.0857	32.8791	0.511176	0.554758	10.148	-1
168	87.6373	Inf	0.00167808	25.1948	25.2947	25.0948	32.8781	0.509359	0.457535	10.1481	-1
170.8	87.9212	Inf	0.00170607	25.1793	25.2846	25.0739	32.8783	0.510286	0.50445	10.1476	-1
173.6	88.024	Inf	0.00173406	25.2034	25.3043	25.1026	32.8779	0.509793	0.448828	10.1474	-1
176.4	88.1613	Inf	0.00176204	25.1885	25.2977	25.0793	32.8788	0.5107	0.528162	10.1477	-1
179.2	88.5634	Inf	0.00179006	25.1954	25.2811	25.1096	32.8777	0.510432	0.58676	10.1478	-1
182	88.8286	Inf	0.00181804	25.2037	25.2973	25.1101	32.8804	0.511186	0.548693	10.148	-1
184.8	88.946	Inf	0.00184605	25.1782	25.2633	25.093	32.8787	0.511	0.521563	10.1476	-1
187.6	89.0522	Inf	0.00187402	25.1953	25.3107	25.08	32.8796	0.510732	0.47721	10.1484	-1
190.4	89.1107	Inf	0.00190203	25.1848	25.2891	25.0804	32.8802	0.510546	0.496172	10.1478	-1
193.2	89.1187	Inf	0.00193003	25.1949	25.3005	25.0893	32.8791	0.511635	0.47634	10.1482	-1
196	89.1906	Inf	0.001958	25.1995	25.3016	25.0973	32.8784	0.511756	0.45791	10.1484	-1
198.8	89.457	Inf	0.00198602	25.1879	25.2982	25.0776	32.8779	0.511025	0.508813	10.1481	-1
201.6	89.5162	Inf	0.00201401	25.1905	25.2905	25.0904	32.8793	0.511352	0.373371	10.148	-1
204.4	90.1179	Inf	0.002042	25.1848	25.2893	25.0803	32.8801	0.511036	0.471529	10.1478	-1
207.2	90.3322	Inf	0.00207001	25.184	25.2845	25.0836	32.879	0.510246	0.478336	10.148	-1
210	90.7411	Inf	0.002098	25.1832	25.279	25.0874	32.8803	0.510431	0.481071	10.1477	-1
212.8	90.8023	Inf	0.002126	25.1953	25.2924	25.0982	32.8796	0.51149	0.535799	10.1478	-1
215.6	90.8825	Inf	0.002154	25.206	25.3141	25.0978	32.8795	0.511635	0.475121	10.1477	-1
218.4	90.7623	Inf	0.00218195	25.1782	25.2898	25.0666	32.8788	0.511444	0.869185	10.1479	-1
221.2	90.8188	Inf	0.00220996	25.1807	25.2868	25.0746	32.8792	0.510953	0.884663	10.1479	-1
224	91.0687	Inf	0.00223796	25.1802	25.2869	25.0734	32.8798	0.511065	0.892427	10.1477	-1
226.8	91.3224	Inf	0.00226596	25.1968	25.3045	25.0891	32.8807	0.511899	0.939994	10.148	-1
229.6	91.5732	Inf	0.00229391	25.1919	25.3001	25.0836	32.88	0.51111	0.857808	10.1477	-1
232.4	91.7591	Inf	0.0023219	25.2065	25.3229	25.0902	32.8808	0.511768	0.819686	10.1477	-1
235.2	91.9802	Inf	0.00234985	25.188	25.2827	25.0934	32.8808	0.511646	0.75549	10.1476	-1
238	92.2331	Inf	0.00237785	25.196	25.2949	25.0971	32.8796	0.511506	0.846448	10.1475	-1
240.8	92.6188	Inf	0.00240593	25.2101	25.3257	25.0945	32.8806	0.51104	0.856958	10.1476	-1
243.6	92.8197	Inf	0.00243388	25.1986	25.3079	25.0893	32.8811	0.51184	0.868907	10.1477	-1
246.4	93.092	Inf	0.00246191	25.1949	25.2996	25.0903	32.8795	0.512522	0.926867	10.148	-1
249.2	93.3663	Inf	0.00248993	25.1998	25.2974	25.1022	32.8821	0.510438	0.830578	10.1479	-1
252	93.7059	Inf	0.00251789	25.2033	25.2979	25.1087	32.8821	0.511487	0.880781	10.1478	-1
254.8	94.3265	Inf	0.00254589	25.1882	25.3063	25.0701	32.8811	0.512622	0.992959	10.1478	-1
257.6	94.7282	Inf	0.0025739	25.1936	25.2948	25.0923	32.8801	0.512529	0.97815	10.1476	-1
260.4	95.2625	Inf	0.00260188	25.2113	25.3124	25.1102	32.8805	0.510804	1.02396	10.1478	-1
263.2	95.7312	Inf	0.00262986	25.1909	25.2888	25.0931	32.8824	0.512373	0.953191	10.1475	-1
266	96.1197	Inf	0.00265785	25.1942	25.2991	25.0893	32.8811	0.51189	1.04657	10.1473	-1
268.8	96.3829	Inf	0.00268586	25.1808	25.2883	25.0734	32.8821	0.513158	1.04539	10.1479	-1
271.6	96.7874	Inf	0.00271385	25.1975	25.3072	25.0878	32.881	0.51273	1.23014	10.1476	-1
274.4	97.2261	Inf	0.00274185	25.201	25.3058	25.0963	32.8811	0.512415	1.11289	10.1479	-1
277.2	97.6772	Inf	0.00276984	25.2113	25.3215	25.101	32.882	0.511873	1.09932	10.1476	-1
280	98.0907	Inf	0.00279786	25.2097	25.3086	25.1108	32.8815	0.512496	1.0341	10.1475	-1
282.8	98.4939	Inf	0.00282585	25.2043	25.31	25.0986	32.8805	0.513098	0.932172	10.1475	-1
285.6	98.9501	Inf	0.00285381	25.2107	25.3287	25.0926	32.8806	0.512235	1.01234	10.1475	-1
288.4	99.3501	Inf	0.0028818	25.215	25.3225	25.1075	32.882	0.512723	1.12882	10.1479	-1
291.2	99.5802	Inf	0.00290982	25.2035	25.3011	25.1059	32.8814	0.512834	0.992231	10.1478	-1
294	99.755	Inf	0.00293779	25.1991	25.3045	25.0937	32.8823	0.51238	0.962384	10.1476	-1
296.8	100.031	Inf	0.00296585	25.2127	25.323	25.1023	32.8838	0.513376	0.899687	10.1474	-1
299.6	100.288	Inf	0.00299386	25.207	25.3147	25.0993	32.8822	0.512434	0.827326	10.1477	-1
302.4	100.553	Inf	0.00302183	25.2064	25.2924	25.1204	32.881	0.512383	0.935357	10.1475	-1
305.2	100.897	Inf	0.00304984	25.2037	25.3094	25.098	32.8811	0.513172	1.03258	10.1476	-1
306.8	101.19	Inf	0.00306583	25.2111	25.3161	25.1061	32.88	0.512574	0.945905	10.1478	-1