File: data/ReportRaw/Resin_TXT/Unknown_Resin/Tensile_Test_01.txt
Program Started: Tue, Jul 16, 2024	1:13:32 PM	System: µTS4
Test Notes:

User displacement limits active. Low limit -20.000E-3 m, high limit 20.000E-3 m.
User load limits active. Low limit -1.600E+3 N, high limit 1.600E+3 N.

No closed loop control sensors in this test.

Test Segments:
 1. Ramp in Drive Control, +5.00E-3m Amplitude, 10.00E-6 m/s Speed. Sampling at 20.000 Hz, Lowpass Filter Cutoff of 100.000 Hz

Specimen Thickness (m): 	1.550E-3
Specimen Width (m): 	1.910E-3
Specimen Diameter (m): 	0.000E+0
Specimen Area (m^2): 	2.960E-6
Specimen Length (m): 	5.000E-3

Test Started: Tue, Jul 16, 2024	1:49:57 PM
Time (s)	LCFS1600 (N)	LCW1600 (N)	ECATENC (m)	SpecTemp (C)	AirTemp (C)	OutletTemp (C)	JTemp1600 (C)	GTemp1600 (C)	CUR (A)	Ve (V)	Trigger (#)
0.0000000000E+0	-0.320076	-0.179248	4.03323e-17	24.5234	24.5161	24.5307	32.8129	0.506562	0.0148763	10.1463	-1
1.4	1.10801	1.19252	1.36905e-05	24.5213	24.5243	24.5183	32.8119	0.505707	0.149628	10.1458	-1
2.8	1.8416	1.97094	2.76981e-05	24.5197	24.5081	24.5313	32.8119	0.506845	0.143377	10.1463	-1
4.2	2.71467	2.77317	4.16997e-05	24.5235	24.5179	24.5291	32.8118	0.507654	0.225483	10.1463	-1
5.6	3.54602	3.62151	5.56998e-05	24.5146	24.5107	24.5185	32.813	0.507031	0.144565	10.1463	-1
7	4.43079	4.52264	6.96896e-05	24.521	24.5167	24.5253	32.8126	0.506603	0.20723	10.1463	-1
8.4	5.3048	5.41114	8.3661e-05	24.5071	24.5158	24.4984	32.8134	0.506892	0.151673	10.1463	-1
9.8	6.34419	6.35688	9.76888e-05	24.5208	24.5224	24.5192	32.811	0.5052	0.112568	10.1465	-1
11.2	7.16522	7.31953	0.000111704	24.5001	24.5107	24.4895	32.8131	0.50745	0.205443	10.1467	-1
12.6	8.16036	8.28374	0.000125671	24.535	24.5282	24.5418	32.8125	0.505887	0.162431	10.1462	-1
14	9.16321	9.22022	0.000139701	24.5166	24.5154	24.5178	32.8143	0.506161	0.22386	10.1468	-1
15.4	10.2496	10.1858	0.000153708	24.5281	24.5432	24.5129	32.8118	0.506467	0.172686	10.1471	-1
16.8	11.1059	11.1517	0.000167698	24.5088	24.5163	24.5013	32.8124	0.507798	0.15418	10.1467	-1
18.2	12.0537	12.2052	0.000181689	24.5147	24.5347	24.4947	32.8125	0.506451	0.176263	10.1467	-1
19.6	13.3003	13.3792	0.000195672	24.5231	24.5089	24.5373	32.8135	0.506418	0.177388	10.1465	-1
21	14.4284	14.5951	0.000209721	24.5156	24.5126	24.5186	32.8149	0.507149	0.292565	10.1464	-1
22.4	15.8236	15.9658	0.000223709	24.5108	24.5128	24.5087	32.8132	0.506373	0.214046	10.1467	-1
23.8	17.2602	17.31	0.000237714	24.5236	24.517	24.5301	32.8131	0.505716	0.257226	10.1471	-1
25.2	18.5756	18.7561	0.000251695	24.5271	24.5203	24.534	32.8125	0.505707	0.255107	10.1471	-1
26.6	20.119	20.2657	0.000265734	24.5221	24.5163	24.528	32.8126	0.504792	0.230574	10.1476	-1
28	21.7743	21.8837	0.000279712	24.5188	24.5156	24.5221	32.8142	0.506768	0.281694	10.1475	-1
29.4	23.4618	23.5845	0.000293686	24.508	24.5038	24.5121	32.8151	0.506603	0.239077	10.1475	-1
30.8	24.8275	24.9433	0.000307698	24.5229	24.5234	24.5223	32.8142	0.505348	0.352237	10.1474	-1
32.2	26.4109	26.4906	0.000321693	24.5271	24.5197	24.5344	32.814	0.505579	0.263437	10.1476	-1
33.6	28.0895	28.2131	0.000335693	24.4998	24.5129	24.4867	32.8148	0.505187	0.18101	10.1476	-1
35	29.8036	29.8946	0.000349682	24.5149	24.5121	24.5177	32.8142	0.505572	0.309647	10.1476	-1
36.4	31.4265	Inf	0.000363682	24.5116	24.5036	24.5195	32.8142	0.505354	0.276882	10.1479	-1
37.8	32.7515	Inf	0.000377687	24.5141	24.5106	24.5175	32.8153	0.504936	0.343358	10.1481	-1
39.2	34.3663	Inf	0.000391659	24.5039	24.4992	24.5087	32.8137	0.50542	0.253158	10.1479	-1
40.6	35.969	Inf	0.000405674	24.5162	24.5201	24.5122	32.8149	0.505422	0.33046	10.1479	-1
42	37.5001	Inf	0.000419663	24.5079	24.5012	24.5147	32.8139	0.505594	0.337447	10.1476	-1
43.4	39.0269	Inf	0.000433695	24.5148	24.5037	24.526	32.8141	0.505345	0.244975	10.1479	-1
44.8	40.6268	Inf	0.000447662	24.5106	24.503	24.5182	32.8138	0.505691	0.374573	10.1477	-1
46.2	41.88	Inf	0.000461649	24.5146	24.5075	24.5218	32.8145	0.505654	0.343894	10.1486	-1
47.6	43.3277	Inf	0.000475678	24.5189	24.5199	24.5179	32.8134	0.504861	0.369322	10.1482	-1
49	44.3184	Inf	0.000489659	24.5022	24.4921	24.5123	32.8141	0.50528	0.315004	10.1482	-1
50.4	45.6538	Inf	0.000503662	24.5044	24.5081	24.5008	32.8145	0.504793	0.337502	10.1482	-1
51.8	47.0829	Inf	0.000517653	24.499	24.5103	24.4876	32.8162	0.504818	0.381358	10.1482	-1
53.2	48.5445	Inf	0.000531624	24.5115	24.5143	24.5086	32.8151	0.504474	0.354424	10.1485	-1
54.6	49.8506	Inf	0.000545644	24.5188	24.5186	24.5191	32.8163	0.505089	0.473486	10.1481	-1
56	51.3611	Inf	0.000559652	24.5194	24.5231	24.5156	32.8159	0.504977	0.463657	10.1483	-1
57.4	52.7513	Inf	0.000573676	24.5168	24.5079	24.5258	32.8155	0.504571	0.384789	10.1481	-1
58.8	53.969	Inf	0.000587645	24.5175	24.5241	24.5109	32.8153	0.504296	0.393859	10.1482	-1
60.2	55.2105	Inf	0.000601652	24.5342	24.5377	24.5306	32.8156	0.50501	0.320207	10.1479	-1
61.6	57.0864	Inf	0.000615642	24.518	24.5274	24.5086	32.8153	0.505009	0.377601	10.1482	-1
63	58.7112	Inf	0.000629616	24.5193	24.5202	24.5183	32.8156	0.504765	0.383593	10.1481	-1
64.4	60.4295	Inf	0.000643642	24.5126	24.5269	24.4984	32.8161	0.504872	0.444391	10.148	-1
65.8	62.0298	Inf	0.000657626	24.5228	24.5342	24.5114	32.8159	0.504959	0.458921	10.148	-1
67.2	64.0205	Inf	0.000671606	24.5259	24.5233	24.5285	32.8162	0.504812	0.327857	10.148	-1
68.6	65.9864	Inf	0.000685607	24.5288	24.5212	24.5364	32.8152	0.505378	0.588366	10.1483	-1
70	67.6793	Inf	0.000699595	24.5056	24.5117	24.4994	32.816	0.504618	0.568175	10.1482	-1
71.4	69.5502	Inf	0.000713614	24.5197	24.5123	24.5271	32.8158	0.504902	0.643934	10.1479	-1
72.8	71.4762	Inf	0.000727594	24.5042	24.5051	24.5033	32.8164	0.504549	0.635651	10.1481	-1
74.2	73.3041	Inf	0.000741624	24.5155	24.5158	24.5152	32.8167	0.50403	0.629314	10.1478	-1
75.6	75.1392	Inf	0.000755613	24.519	24.5258	24.5122	32.8161	0.503934	0.666506	10.1482	-1
77	76.7432	Inf	0.000769604	24.5144	24.5125	24.5162	32.8162	0.504674	0.59509	10.1477	-1
78.4	78.3863	Inf	0.000783575	24.5125	24.5044	24.5206	32.8166	0.504123	0.746245	10.1486	-1
79.8	79.8324	Inf	0.000797558	24.5089	24.5164	24.5014	32.8177	0.504197	0.752228	10.1481	-1
81.2	81.3881	Inf	0.000811561	24.5148	24.5017	24.5279	32.8166	0.504732	0.620919	10.1478	-1
82.6	82.8988	Inf	0.000825541	24.5081	24.5138	24.5024	32.8175	0.504468	0.690243	10.1478	-1
84	84.2176	Inf	0.000839527	24.5158	24.5042	24.5273	32.818	0.50342	0.629641	10.1477	-1
85.4	85.3139	Inf	0.000853536	24.5183	24.5114	24.5251	32.8165	0.503536	0.696013	10.1481	-1
86.8	86.6405	Inf	0.000867504	24.535	24.5266	24.5434	32.817	0.504776	0.769433	10.1482	-1
88.2	87.7598	Inf	0.000881523	24.5155	24.517	24.514	32.8167	0.505091	0.791003	10.1479	-1
89.6	88.7631	Inf	0.000895509	24.5045	24.5213	24.4877	32.818	0.50465	0.893027	10.1478	-1
91	89.5456	Inf	0.000909524	24.5189	24.5167	24.5211	32.817	0.504853	0.714091	10.1475	-1
92.4	90.1429	Inf	0.000923515	24.5088	24.5001	24.5174	32.8149	0.505342	0.647404	10.1476	-1
93.8	91.2865	Inf	0.00093753	24.5308	24.5364	24.5251	32.8172	0.504395	0.733923	10.1479	-1
95.2	92.1014	Inf	0.000951608	24.5258	24.5261	24.5256	32.8171	0.504849	0.766363	10.1481	-1
96.6	92.7797	Inf	0.000965599	24.5201	24.5263	24.5138	32.8163	0.504418	0.781852	10.1484	-1
98	93.4246	Inf	0.000979631	24.5154	24.524	24.5068	32.8163	0.50437	0.692268	10.1478	-1
99.4	93.8577	Inf	0.000993606	24.5258	24.5308	24.5208	32.8188	0.504031	0.687279	10.1488	-1
100.8	94.1751	Inf	0.00100761	24.5201	24.5214	24.5188	32.8182	0.50438	0.597766	10.1482	-1
102.2	94.6105	Inf	0.00102161	24.5081	24.5022	24.514	32.8178	0.504862	0.679818	10.1482	-1
103.6	94.9746	Inf	0.0010356	24.5259	24.5288	24.523	32.8174	0.505145	0.606888	10.1479	-1
105	95.0218	Inf	0.0010496	24.5212	24.5214	24.5211	32.8177	0.504127	0.585078	10.1477	-1
106.4	95.0866	Inf	0.00106359	24.5168	24.518	24.5156	32.8192	0.505238	0.60852	10.1486	-1
107.8	95.1763	Inf	0.0010776	24.5396	24.5359	24.5432	32.8192	0.503529	0.508481	10.148	-1
109.2	95.2346	Inf	0.00109165	24.51	24.512	24.508	32.8184	0.50512	0.523041	10.1481	-1
110.6	95.2032	Inf	0.00110564	24.5175	24.5156	24.5195	32.8194	0.503273	0.457726	10.148	-1
112	95.2076	Inf	0.00111956	24.4991	24.5033	24.4949	32.8195	0.5034	0.536068	10.1484	-1
113.4	95.1338	Inf	0.00113364	24.5115	24.5107	24.5123	32.8185	0.504182	0.556482	10.1479	-1
114.8	95.1192	Inf	0.00114765	24.5135	24.5225	24.5045	32.819	0.503923	0.405899	10.1481	-1
116.2	95.0006	Inf	0.00116161	24.51	24.508	24.512	32.8195	0.503652	0.508835	10.1481	-1
117.6	94.9136	Inf	0.0011756	24.5183	24.5209	24.5157	32.8197	0.503909	0.403374	10.1481	-1
119	94.7774	Inf	0.00118963	24.5024	24.497	24.5078	32.8205	0.504078	0.483785	10.148	-1
120.4	94.516	Inf	0.00120363	24.5069	24.5099	24.5039	32.8192	0.504135	0.561694	10.1477	-1
121.8	94.154	Inf	0.00121758	24.5092	24.5137	24.5046	32.8181	0.505385	0.517276	10.1484	-1
123.2	93.9657	Inf	0.00123161	24.5153	24.5192	24.5115	32.8203	0.503908	0.521714	10.1483	-1
124.6	93.6113	Inf	0.00124563	24.5191	24.5195	24.5188	32.8195	0.503763	0.466549	10.148	-1
126	93.3307	Inf	0.00125961	24.5206	24.5162	24.5251	32.8195	0.503957	0.599632	10.1481	-1
127.4	93.0077	Inf	0.00127359	24.5213	24.5243	24.5182	32.8202	0.504024	0.481456	10.1483	-1
128.8	92.8966	Inf	0.00128762	24.5093	24.5158	24.5028	32.8202	0.504002	0.48882	10.1483	-1
130.2	92.4791	Inf	0.00130162	24.5128	24.5162	24.5095	32.8197	0.504314	0.550408	10.1484	-1
131.6	92.1649	Inf	0.0013156	24.5191	24.5055	24.5327	32.819	0.503945	0.491521	10.1483	-1
133	91.9161	Inf	0.00132958	24.5116	24.5143	24.5089	32.8218	0.504001	0.538664	10.1485	-1
134.4	91.6012	Inf	0.00134358	24.5231	24.5212	24.5251	32.8204	0.503157	0.494852	10.1483	-1
135.8	91.3039	Inf	0.00135761	24.5094	24.5111	24.5077	32.8199	0.504071	0.608228	10.1484	-1
137.2	91.0315	Inf	0.00137158	24.5062	24.5053	24.5071	32.8205	0.503611	0.60297	10.1486	-1
138.6	90.6547	Inf	0.00138558	24.5142	24.5206	24.5078	32.8212	0.503699	0.548409	10.1483	-1
140	90.421	Inf	0.00139959	24.5067	24.5157	24.4976	32.8196	0.5034	0.614742	10.1484	-1
141.4	90.0465	Inf	0.00141358	24.5091	24.5118	24.5064	32.82	0.503546	0.529148	10.1485	-1
142.8	89.7329	Inf	0.00142756	24.5109	24.5192	24.5026	32.8205	0.504629	0.554632	10.1487	-1
144.2	89.0095	Inf	0.00144158	24.5133	24.5047	24.5219	32.8207	0.503589	0.51921	10.1484	-1
145.6	-1.23702	-1.7766	0.00145556	24.5228	24.5297	24.5159	32.8219	0.504699	0.191047	10.1468	-1
147	-1.17101	-1.80479	0.00146958	24.5296	24.5339	24.5252	32.8213	0.505126	0.246378	10.1465	-1
148.4	-1.23488	-1.79865	0.00148355	24.5206	24.5241	24.517	32.8217	0.505075	0.136257	10.1467	-1
149.8	-1.14436	-1.81092	0.00149757	24.5259	24.5264	24.5253	32.8221	0.505277	0.196252	10.1466	-1
149.85	-1.15727	-1.7947	0.00149809	24.5238	24.5218	24.5258	32.8222	0.505583	0.185678	10.1465	-1