File: data/ReportRaw/Resin_TXT/Unknown_Resin/Tensile_Test_03.txt
Program Started: Tue, Jul 16, 2024	1:13:32 PM	System: µTS4
Test Notes:

User displacement limits active. Low limit -20.000E-3 m, high limit 20.000E-3 m.
User load limits active. Low limit -1.600E+3 N, high limit 1.600E+3 N.

No closed loop control sensors in this test.

Test Segments:
 1. Ramp in Drive Control, +5.00E-3m Amplitude, 10.00E-6 m/s Speed. Sampling at 20.000 Hz, Lowpass Filter Cutoff of 100.000 Hz

Specimen Thickness (m): 	1.550E-3
Specimen Width (m): 	1.910E-3
Specimen Diameter (m): 	0.000E+0
Specimen Area (m^2): 	2.960E-6
Specimen Length (m): 	5.000E-3

Test Started: Tue, Jul 16, 2024	2:35:05 PM
Time (s)	LCFS1600 (N)	LCW1600 (N)	ECATENC (m)	SpecTemp (C)	AirTemp (C)	OutletTemp (C)	JTemp1600 (C)	GTemp1600 (C)	CUR (A)	Ve (V)	Trigger (#)
0.0000000000E+0	-0.206812	-0.201546	-5.0307e-17	25.1737	25.2373	25.1101	32.9308	0.509242	-0.14091	10.1454	-1
3.1	8.59954	8.67253	2.97711e-05	25.1939	25.2635	25.1243	32.9308	0.509234	0.0851724	10.146	-1
6.2	13.7025	13.7192	6.07548e-05	25.1709	25.2298	25.1119	32.9309	0.509153	0.156371	10.1463	-1
9.3	18.4557	18.5164	9.17756e-05	25.1803	25.2377	25.1229	32.9293	0.508465	0.122886	10.1462	-1
12.4	20.252	20.3145	0.000122752	25.1871	25.2477	25.1266	32.9318	0.509447	0.0771073	10.1463	-1
15.5	20.4912	20.4747	0.000153741	25.1842	25.2511	25.1173	32.933	0.509077	0.138386	10.1464	-1
18.6	20.5671	20.5731	0.000184746	25.1818	25.2516	25.112	32.9299	0.508533	0.142958	10.1464	-1
21.7	21.4836	21.4462	0.000215742	25.1868	25.2553	25.1184	32.9329	0.509401	0.167934	10.1467	-1
24.8	23.9866	24.0578	0.000246702	25.1985	25.2511	25.1459	32.9321	0.508002	0.182216	10.1466	-1
27.9	24.9757	25.0237	0.000277714	25.1943	25.2578	25.1308	32.933	0.509732	0.237661	10.1466	-1
31	25.5204	25.6272	0.000308723	25.213	25.2717	25.1543	32.9343	0.509102	0.226225	10.1465	-1
34.1	26.1026	26.1013	0.000339688	25.2074	25.2707	25.144	32.9328	0.509234	0.110033	10.1469	-1
37.2	26.3092	26.4338	0.000370647	25.2143	25.2773	25.1513	32.9337	0.509021	0.239661	10.1467	-1
40.3	26.3361	26.4396	0.000401695	25.1953	25.2704	25.1203	32.9334	0.509325	0.181121	10.1469	-1
43.4	26.3753	26.4265	0.000432667	25.2107	25.2682	25.1533	32.9326	0.510217	0.106327	10.147	-1
46.5	26.4443	26.4332	0.000463614	25.217	25.2847	25.1493	32.9343	0.509501	0.224465	10.1466	-1
49.6	26.2989	26.4463	0.000494611	25.2081	25.2648	25.1514	32.9349	0.510601	0.183695	10.1475	-1
52.7	26.4636	26.441	0.000525607	25.207	25.2562	25.1577	32.9343	0.510364	0.129653	10.1466	-1
55.8	26.3562	26.4359	0.000556585	25.2077	25.268	25.1473	32.9341	0.509864	0.215148	10.147	-1
58.9	26.5214	26.4447	0.000587604	25.2048	25.2639	25.1457	32.9346	0.509602	0.197574	10.1467	-1
62	26.3768	26.4334	0.000618583	25.2216	25.2888	25.1545	32.9346	0.509975	0.126704	10.1465	-1
65.1	26.3645	26.44	0.000649587	25.2216	25.2907	25.1525	32.9351	0.510114	0.159938	10.147	-1
68.2	26.4143	26.4448	0.000680542	25.2211	25.2873	25.1549	32.9342	0.509324	0.18463	10.1467	-1
71.3	26.4529	26.4416	0.000711587	25.2227	25.2867	25.1588	32.9351	0.510011	0.169321	10.1467	-1
74.4	26.3824	26.4322	0.000742545	25.2205	25.2884	25.1526	32.9373	0.509615	0.16892	10.1465	-1
77.5	26.3861	26.4378	0.000773602	25.2234	25.2802	25.1665	32.937	0.511804	0.170519	10.1465	-1
80.6	26.438	26.4425	0.000804607	25.2328	25.2946	25.1711	32.9361	0.50997	0.199011	10.1471	-1
83.7	26.3666	26.427	0.000835615	25.1939	25.2531	25.1347	32.9355	0.510219	0.0841343	10.1469	-1
86.8	26.3838	26.433	0.000866591	25.2163	25.2693	25.1633	32.9374	0.51042	0.194112	10.1467	-1
89.9	26.4233	26.4423	0.000897598	25.2391	25.312	25.1661	32.9383	0.509478	0.232444	10.1466	-1
93	26.389	26.4468	0.000928578	25.2444	25.2975	25.1914	32.9383	0.509927	0.16515	10.1466	-1
96.1	26.3636	26.4434	0.000959554	25.2453	25.3088	25.1818	32.9384	0.509867	0.171551	10.1467	-1
99.2	26.3991	26.4636	0.000990553	25.2189	25.2876	25.1502	32.9384	0.509996	0.184023	10.1468	-1
102.3	26.4144	26.4604	0.00102161	25.2346	25.2928	25.1764	32.9382	0.510763	0.177546	10.1467	-1
105.4	26.3442	26.4549	0.0010526	25.2288	25.2857	25.1719	32.9396	0.510104	0.128724	10.1468	-1
108.5	26.4404	26.4584	0.00108359	25.2361	25.2874	25.1848	32.9393	0.510123	0.183583	10.147	-1
111.6	26.4025	26.4645	0.00111458	25.2289	25.2878	25.1701	32.9393	0.510389	0.202425	10.1471	-1
114.7	26.3349	26.4526	0.00114559	25.2308	25.3001	25.1616	32.9377	0.510573	0.148079	10.1469	-1
117.8	26.3481	26.4467	0.00117659	25.2273	25.2945	25.1601	32.9403	0.51045	0.190206	10.1465	-1
120.9	26.3543	26.4567	0.00120757	25.2331	25.3011	25.1651	32.9402	0.510882	0.291771	10.1468	-1
124	26.415	26.4684	0.00123858	25.2394	25.2923	25.1864	32.9395	0.510716	0.181534	10.1471	-1
127.1	26.4021	26.4636	0.00126954	25.2421	25.314	25.1702	32.9418	0.510222	0.206695	10.1468	-1
130.2	26.2981	26.4652	0.00130056	25.2402	25.2942	25.1861	32.9392	0.511138	0.279745	10.1468	-1
133.3	26.458	26.472	0.00133153	25.24	25.3133	25.1666	32.9407	0.511187	0.151644	10.147	-1
136.4	26.4558	26.4893	0.00136251	25.2303	25.2861	25.1746	32.941	0.510986	0.288947	10.1466	-1
139.5	26.4418	26.4763	0.00139347	25.2405	25.2955	25.1855	32.9419	0.510409	0.228239	10.1467	-1
142.6	26.4217	26.4693	0.00142448	25.2323	25.292	25.1725	32.942	0.511258	0.190561	10.1465	-1
145.7	26.4954	26.4855	0.00145546	25.2276	25.296	25.1591	32.9417	0.510725	0.190549	10.1472	-1
148.8	26.4357	26.4968	0.00148645	25.2381	25.3062	25.17	32.9429	0.510626	0.194836	10.1471	-1
151.9	26.5068	26.5008	0.00151746	25.2244	25.2828	25.1661	32.9419	0.510994	0.17926	10.1469	-1
155	26.489	26.5082	0.00154845	25.2203	25.2765	25.1641	32.9437	0.511036	0.210931	10.1469	-1
158.1	26.4527	26.5305	0.00157943	25.2398	25.2954	25.1842	32.9429	0.511213	0.168273	10.1468	-1
161.2	26.6419	26.6132	0.00161043	25.2296	25.2865	25.1728	32.9444	0.509963	0.223955	10.1466	-1
164.3	27.1957	27.2967	0.00164143	25.2407	25.301	25.1804	32.9456	0.509969	0.212103	10.1464	-1
167.4	28.0606	28.1979	0.00167246	25.2181	25.2829	25.1534	32.9443	0.509705	0.0996323	10.1469	-1
170.5	29.3357	29.3555	0.00170343	25.2285	25.2937	25.1634	32.9454	0.510675	0.227082	10.1472	-1
173.6	30.7235	30.8124	0.00173446	25.231	25.2957	25.1663	32.9444	0.509989	0.210018	10.1476	-1
176.7	32.3437	32.4362	0.00176548	25.2236	25.286	25.1612	32.9449	0.510832	0.098942	10.1476	-1
179.8	33.8843	33.9577	0.00179644	25.2222	25.2792	25.1653	32.9459	0.510403	0.231865	10.1476	-1
182.9	35.4124	35.4613	0.00182745	25.2304	25.2827	25.1781	32.9448	0.511341	0.168011	10.1475	-1
186	36.97	37.0578	0.00185842	25.2258	25.2942	25.1573	32.9461	0.510405	0.121137	10.1475	-1
189.1	38.6799	38.65	0.00188944	25.238	25.3	25.176	32.947	0.510689	0.201374	10.1474	-1
192.2	41.2048	41.2787	0.00192041	25.2235	25.2929	25.1542	32.9456	0.510097	0.232081	10.148	-1
195.3	44.2782	44.2364	0.00195143	25.2135	25.2832	25.1439	32.9478	0.511007	0.1846	10.1474	-1
198.4	47.3806	47.4977	0.0019824	25.2104	25.2716	25.1492	32.9465	0.509121	0.208108	10.1478	-1
201.5	50.9328	50.9013	0.0020134	25.2149	25.272	25.1578	32.9463	0.509481	0.222069	10.1483	-1
204.6	54.4033	54.3919	0.0020444	25.227	25.2885	25.1656	32.9476	0.509585	0.241891	10.1481	-1
207.7	57.8076	Inf	0.00207541	25.2162	25.2802	25.1522	32.9464	0.510239	0.192594	10.1488	-1
210.8	61.3646	Inf	0.00210637	25.2206	25.2744	25.1668	32.9475	0.509458	0.248341	10.1488	-1
213.9	64.8781	Inf	0.00213739	25.2096	25.283	25.1362	32.9475	0.509803	0.290115	10.1491	-1
217	68.4354	Inf	0.00216838	25.2121	25.2654	25.1588	32.949	0.509147	0.175354	10.1491	-1
220.1	71.4574	Inf	0.00219934	25.2264	25.2823	25.1705	32.9502	0.507746	0.296328	10.149	-1
223.2	74.3211	Inf	0.00223035	25.2374	25.2998	25.1749	32.9474	0.509017	0.315184	10.1486	-1
226.3	76.6512	Inf	0.00226134	25.2118	25.2859	25.1377	32.9493	0.508822	0.30186	10.1492	-1
229.4	79.5925	Inf	0.00229227	25.2076	25.2567	25.1584	32.9509	0.508979	0.299479	10.1482	-1
232.5	81.97	Inf	0.00232328	25.2227	25.278	25.1674	32.9501	0.508344	0.363415	10.1485	-1
235.6	84.7852	Inf	0.00235428	25.2169	25.2614	25.1724	32.9511	0.508939	0.355028	10.1486	-1
238.7	88.3989	Inf	0.00238526	25.2085	25.2698	25.1471	32.9506	0.506899	0.410581	10.149	-1
241.8	91.9583	Inf	0.00241626	25.2227	25.2689	25.1766	32.9513	0.507986	0.638696	10.1485	-1
244.9	95.2271	Inf	0.00244724	25.2123	25.2583	25.1664	32.951	0.508263	0.762822	10.149	-1
248	98.5448	Inf	0.00247826	25.2142	25.2742	25.1542	32.9506	0.507392	0.654041	10.1482	-1
251.1	101.517	Inf	0.00250924	25.223	25.2721	25.1739	32.951	0.507662	0.810297	10.1487	-1
254.2	103.823	Inf	0.00254025	25.2053	25.2667	25.1439	32.952	0.507906	0.973196	10.1489	-1
257.3	106.722	Inf	0.00257124	25.2239	25.2747	25.1732	32.953	0.508251	0.872281	10.1485	-1
260.4	109.612	Inf	0.00260228	25.2124	25.2735	25.1512	32.953	0.508171	0.906192	10.1487	-1
263.5	111.947	Inf	0.00263327	25.2258	25.2807	25.171	32.9526	0.508726	1.01256	10.1483	-1
266.6	114.383	Inf	0.00266427	25.2253	25.3026	25.148	32.9532	0.507706	0.921962	10.1483	-1
269.7	116.099	Inf	0.00269525	25.2028	25.2681	25.1375	32.9535	0.507763	0.921366	10.1483	-1
272.8	117.711	Inf	0.00272625	25.2028	25.2622	25.1433	32.9531	0.507488	1.01357	10.1484	-1
275.9	118.854	Inf	0.00275723	25.2014	25.2612	25.1416	32.9538	0.508272	0.991322	10.1487	-1
279	119.846	Inf	0.00278822	25.2116	25.2799	25.1433	32.9542	0.508319	1.02939	10.1486	-1
282.1	120.552	Inf	0.00281922	25.214	25.2796	25.1484	32.9529	0.507368	0.93827	10.1486	-1
285.2	120.856	Inf	0.00285022	25.2288	25.2891	25.1684	32.955	0.508564	0.876655	10.1483	-1
288.3	120.849	Inf	0.00288123	25.1973	25.2585	25.1361	32.9557	0.508366	0.834071	10.1487	-1
291.4	120.733	Inf	0.00291221	25.1952	25.2671	25.1233	32.9576	0.507891	0.674072	10.1485	-1
294.5	120.525	Inf	0.00294322	25.1952	25.2546	25.1357	32.9559	0.506573	0.712345	10.1484	-1
297.6	120.052	Inf	0.00297423	25.2111	25.2667	25.1555	32.9566	0.506135	0.641886	10.1484	-1
300.7	119.602	Inf	0.00300521	25.2172	25.2825	25.1518	32.9574	0.50826	0.514643	10.1487	-1
303.8	119.093	Inf	0.0030362	25.2179	25.2751	25.1607	32.9564	0.50789	0.561731	10.1485	-1
306.9	118.472	Inf	0.00306717	25.1971	25.2571	25.137	32.9578	0.507503	0.512767	10.1486	-1
310	118.026	Inf	0.00309815	25.2021	25.2667	25.1376	32.9572	0.507286	0.4076	10.1484	-1
313.1	117.661	Inf	0.00312916	25.2055	25.2678	25.1432	32.9579	0.507629	0.552385	10.1487	-1
316.2	117.223	Inf	0.0031601	25.2074	25.2678	25.1469	32.9574	0.506932	0.460553	10.1485	-1
319.3	116.953	Inf	0.00319116	25.2121	25.2735	25.1506	32.9582	0.506997	0.450566	10.1483	-1
322.4	116.459	Inf	0.0032221	25.2034	25.2589	25.1479	32.9585	0.507197	0.54591	10.1485	-1
325.5	115.554	Inf	0.00325309	25.2041	25.2589	25.1492	32.9596	0.508132	0.497522	10.1488	-1
328.6	114.895	Inf	0.00328409	25.2093	25.2813	25.1373	32.9593	0.507343	0.469111	10.1487	-1
331.7	113.519	Inf	0.00331509	25.2092	25.2609	25.1575	32.9604	0.507759	0.420627	10.1485	-1
334.8	26.5172	25.9399	0.00334606	25.2149	25.2898	25.14	32.9602	0.508549	0.252254	10.1468	-1
336.65	26.547	25.9306	0.00336456	25.2041	25.2602	25.148	32.9618	0.508822	0.258352	10.1463	-1