File: data/ReportRaw/Resin_TXT/Unknown_Resin/Tensile_Test_04.txt
Program Started: Tue, Jul 16, 2024	1:13:32 PM	System: µTS4
Test Notes:

User displacement limits active. Low limit -20.000E-3 m, high limit 20.000E-3 m.
User load limits active. Low limit -1.600E+3 N, high limit 1.600E+3 N.

No closed loop control sensors in this test.

Test Segments:
 1. Ramp in Drive Control, +5.00E-3m Amplitude, 10.00E-6 m/s Speed. Sampling at 20.000 Hz, Lowpass Filter Cutoff of 100.000 Hz

Specimen Thickness (m): 	1.550E-3
Specimen Width (m): 	1.910E-3
Specimen Diameter (m): 	0.000E+0
Specimen Area (m^2): 	2.960E-6
Specimen Length (m): 	5.000E-3

Test Started: Tue, Jul 16, 2024	2:49:20 PM
Time (s)	LCFS1600 (N)	LCW1600 (N)	ECATENC (m)	SpecTemp (C)	AirTemp (C)	OutletTemp (C)	JTemp1600 (C)	GTemp1600 (C)	CUR (A)	Ve (V)	Trigger (#)
0.0000000000E+0	-0.0693721	-0.110129	-1.44416e-16	25.1804	25.2557	25.1052	32.994	0.504007	0.0332673	10.148	-1
1.95	0.379329	0.375124	1.93393e-05	25.1866	25.2467	25.1264	32.9941	0.504577	0.300025	10.148	-1
3.9	0.920615	0.890793	3.8847e-05	25.1691	25.2445	25.0937	32.9942	0.505326	0.296255	10.1477	-1
5.85	1.53717	1.50097	5.83307e-05	25.1828	25.2362	25.1294	32.9936	0.504445	0.233556	10.1477	-1
7.8	2.17847	2.24565	7.78317e-05	25.1643	25.2284	25.1003	32.9946	0.504192	0.215738	10.1479	-1
9.75	3.08079	3.09682	9.73441e-05	25.178	25.2537	25.1024	32.9942	0.503145	0.21242	10.1481	-1
11.7	4.09112	4.0649	0.000116829	25.1741	25.2453	25.1028	32.9975	0.504091	0.37689	10.1477	-1
13.65	5.09142	5.1626	0.000136332	25.1705	25.226	25.1149	32.9944	0.504644	0.303388	10.1481	-1
15.6	6.39056	6.33472	0.000155798	25.1731	25.247	25.0992	32.9927	0.503752	0.237535	10.1481	-1
17.55	7.69482	7.62619	0.000175255	25.1838	25.24	25.1276	32.9957	0.503955	0.248664	10.1482	-1
19.5	8.99737	8.98163	0.000194802	25.1964	25.2592	25.1336	32.9948	0.504501	0.179333	10.1479	-1
21.45	10.5563	10.4861	0.000214329	25.1728	25.2376	25.108	32.994	0.503765	0.170418	10.148	-1
23.4	12.0974	12.0651	0.000233812	25.1718	25.2228	25.1208	32.9939	0.504097	0.173294	10.1482	-1
25.35	13.8	13.7238	0.000253275	25.1724	25.246	25.0988	32.9943	0.504552	0.226274	10.1482	-1
27.3	15.5377	15.5078	0.000272722	25.1576	25.2156	25.0996	32.9933	0.504023	0.242581	10.1488	-1
29.25	17.37	17.3218	0.000292212	25.1812	25.2542	25.1083	32.9953	0.503418	0.196188	10.1487	-1
31.2	19.242	19.2191	0.000311725	25.1653	25.2314	25.0992	32.9933	0.504206	0.15548	10.1485	-1
33.15	21.2322	21.1552	0.00033122	25.1608	25.2216	25.1	32.9936	0.502474	0.198583	10.1485	-1
35.1	23.2947	23.3029	0.000350732	25.1708	25.2353	25.1064	32.9936	0.5034	0.342115	10.1488	-1
37.05	25.3255	25.3644	0.000370208	25.1686	25.2188	25.1184	32.9939	0.503539	0.270358	10.1488	-1
39	27.444	27.4056	0.000389689	25.1717	25.2576	25.0858	32.9951	0.503275	0.267008	10.1492	-1
40.95	29.6988	29.7059	0.000409193	25.1618	25.2302	25.0934	32.9944	0.503512	0.214983	10.1491	-1
42.9	31.8177	Inf	0.000428697	25.1775	25.2498	25.1051	32.9958	0.503865	0.245514	10.1488	-1
44.85	33.7538	Inf	0.00044821	25.1697	25.2292	25.1102	32.994	0.504216	0.333537	10.1492	-1
46.8	35.7335	Inf	0.000467708	25.1707	25.2365	25.1048	32.9954	0.504048	0.275801	10.1492	-1
48.75	37.952	Inf	0.000487206	25.1576	25.2159	25.0992	32.9943	0.504169	0.244636	10.1495	-1
50.7	39.904	Inf	0.000506681	25.1635	25.2199	25.107	32.995	0.5035	0.27475	10.1493	-1
52.65	41.7618	Inf	0.000526185	25.1607	25.228	25.0934	32.9948	0.503446	0.211899	10.1491	-1
54.6	43.2818	Inf	0.000545716	25.164	25.228	25.1001	32.9948	0.504801	0.258603	10.1498	-1
56.55	44.9863	Inf	0.000565242	25.163	25.2288	25.0971	32.9961	0.50366	0.257621	10.1494	-1
58.5	46.6765	Inf	0.00058473	25.1632	25.2247	25.1017	32.9942	0.50439	0.270669	10.1496	-1
60.45	48.8009	Inf	0.000604227	25.1554	25.2291	25.0817	32.9942	0.504066	0.315508	10.1495	-1
62.4	50.6094	Inf	0.000623709	25.1713	25.2363	25.1063	32.9949	0.503324	0.222417	10.1491	-1
64.35	53.3046	Inf	0.000643207	25.1521	25.2222	25.0821	32.9957	0.505108	0.387707	10.1495	-1
66.3	55.7329	Inf	0.000662734	25.1727	25.2398	25.1056	32.9958	0.503698	0.504135	10.1491	-1
68.25	57.7713	Inf	0.000682202	25.1582	25.2046	25.1119	32.9949	0.504685	0.651799	10.1494	-1
70.2	59.9268	Inf	0.000701669	25.1675	25.2214	25.1136	32.9963	0.503633	0.618444	10.1495	-1
72.15	62.325	Inf	0.00072119	25.1589	25.2188	25.0989	32.9958	0.50424	0.632388	10.1494	-1
74.1	64.5297	Inf	0.000740704	25.1579	25.2145	25.1013	32.9954	0.504531	0.695173	10.1491	-1
76.05	66.5905	Inf	0.000760159	25.1561	25.2153	25.0968	32.9937	0.503786	0.751547	10.1492	-1
78	68.4053	Inf	0.000779694	25.1687	25.2256	25.1118	32.9945	0.50463	0.844555	10.1498	-1
79.95	70.5963	Inf	0.000799175	25.1746	25.2386	25.1105	32.9947	0.502885	0.827817	10.1492	-1
81.9	72.8833	Inf	0.000818653	25.1749	25.2347	25.1152	32.9956	0.504791	0.766941	10.1492	-1
83.85	75.179	Inf	0.000838156	25.1616	25.2198	25.1034	32.9959	0.504116	0.894999	10.149	-1
85.8	77.3462	Inf	0.000857683	25.1565	25.2176	25.0954	32.995	0.504449	0.864791	10.1494	-1
87.75	79.8745	Inf	0.000877171	25.1468	25.2136	25.08	32.9964	0.504101	0.969962	10.1489	-1
89.7	82.087	Inf	0.000896648	25.1745	25.2269	25.122	32.9952	0.505209	0.901739	10.1492	-1
91.65	84.2241	Inf	0.000916144	25.1696	25.23	25.1092	32.9952	0.502901	0.870671	10.1491	-1
93.6	86.2705	Inf	0.00093563	25.1573	25.2144	25.1003	32.995	0.503807	0.919489	10.1492	-1
95.55	88.2012	Inf	0.00095515	25.1615	25.228	25.0951	32.9966	0.504907	0.812868	10.149	-1
97.5	89.8734	Inf	0.000974668	25.1582	25.2159	25.1005	32.9953	0.504706	0.772456	10.1489	-1
99.45	91.305	Inf	0.00099415	25.1604	25.2195	25.1012	32.9948	0.504853	0.825788	10.1493	-1
101.4	92.6736	Inf	0.00101362	25.1483	25.2144	25.0822	32.9965	0.504896	0.858323	10.1496	-1
103.35	93.8716	Inf	0.00103312	25.1483	25.2201	25.0764	32.9964	0.504364	0.798503	10.1493	-1
105.3	94.9527	Inf	0.00105265	25.1441	25.1798	25.1083	32.9948	0.503965	0.698585	10.1494	-1
107.25	95.8865	Inf	0.00107215	25.1378	25.2111	25.0645	32.9956	0.50522	0.736412	10.149	-1
109.2	96.6035	Inf	0.00109163	25.1582	25.226	25.0904	32.9953	0.505163	0.736109	10.1491	-1
111.15	97.3079	Inf	0.00111112	25.1683	25.2287	25.108	32.9967	0.504886	0.809384	10.1493	-1
113.1	97.628	Inf	0.00113055	25.1571	25.2225	25.0916	32.9956	0.505336	0.696932	10.1488	-1
115.05	97.9192	Inf	0.0011501	25.1493	25.216	25.0825	32.9969	0.505097	0.639966	10.1491	-1
117	98.028	Inf	0.00116958	25.1544	25.2156	25.0931	32.9969	0.505593	0.659864	10.1488	-1
118.95	97.9804	Inf	0.00118908	25.1588	25.2227	25.0949	32.9964	0.503993	0.68087	10.1491	-1
120.9	97.9685	Inf	0.00120855	25.1535	25.2167	25.0904	32.9967	0.505421	0.677922	10.1494	-1
122.85	97.7145	Inf	0.00122803	25.1593	25.218	25.1006	32.9968	0.504744	0.653645	10.1494	-1
124.8	97.4798	Inf	0.00124751	25.1605	25.2317	25.0893	32.9961	0.504739	0.609975	10.1493	-1
126.75	97.4741	Inf	0.00126701	25.1611	25.2131	25.1091	32.9971	0.504279	0.60867	10.1487	-1
128.7	97.0702	Inf	0.00128652	25.1452	25.2037	25.0867	32.9949	0.505449	0.515499	10.1493	-1
130.65	96.936	Inf	0.00130603	25.1584	25.2148	25.102	32.9961	0.505749	0.522438	10.1488	-1
132.6	96.6216	Inf	0.0013255	25.1454	25.2028	25.0881	32.9978	0.505275	0.538313	10.1492	-1
134.55	96.3402	Inf	0.00134499	25.1514	25.2121	25.0906	32.9972	0.505265	0.583276	10.1488	-1
136.5	95.9735	Inf	0.00136449	25.1601	25.2294	25.0907	32.9974	0.505229	0.588464	10.1491	-1
138.45	95.4975	Inf	0.001384	25.1456	25.2082	25.083	32.9962	0.505536	0.508089	10.149	-1
140.4	95.023	Inf	0.00140352	25.1576	25.2255	25.0898	32.9978	0.505917	0.555564	10.149	-1
142.35	94.6326	Inf	0.00142301	25.1506	25.2072	25.094	32.9972	0.50578	0.594472	10.1489	-1
144.3	94.3935	Inf	0.00144252	25.153	25.1992	25.1068	32.997	0.504749	0.673659	10.1486	-1
146.25	93.9932	Inf	0.00146201	25.1573	25.2252	25.0895	32.996	0.505373	0.54068	10.1489	-1
148.2	93.8532	Inf	0.00148156	25.1441	25.2011	25.0871	32.9983	0.504213	0.44551	10.1489	-1
150.15	93.5753	Inf	0.00150106	25.1507	25.2079	25.0935	32.9956	0.504571	0.528761	10.1491	-1
152.1	93.2955	Inf	0.00152052	25.1555	25.2159	25.0952	32.9968	0.506024	0.497159	10.149	-1
154.05	93.1737	Inf	0.00154001	25.1429	25.1943	25.0915	32.9975	0.505894	0.522505	10.1488	-1
156	92.9332	Inf	0.00155955	25.1515	25.201	25.102	32.9983	0.505011	0.432488	10.1493	-1
157.95	92.9321	Inf	0.00157904	25.153	25.2093	25.0966	32.9968	0.505734	0.380296	10.149	-1
159.9	92.7408	Inf	0.00159853	25.131	25.186	25.0761	32.9987	0.505886	0.396809	10.1488	-1
161.85	92.6642	Inf	0.00161806	25.1413	25.1971	25.0856	32.997	0.505539	0.373437	10.1488	-1
163.8	92.4859	Inf	0.00163754	25.157	25.2109	25.1031	32.9959	0.50508	0.371266	10.1489	-1
165.75	92.6275	Inf	0.001657	25.1526	25.2125	25.0928	32.9981	0.505776	0.417981	10.1489	-1
167.7	92.4852	Inf	0.0016765	25.1571	25.2053	25.1089	32.9964	0.505687	0.430057	10.1493	-1
169.65	92.3881	Inf	0.00169598	25.142	25.1972	25.0868	32.9977	0.505163	0.414617	10.1491	-1
171.6	92.3474	Inf	0.00171552	25.1433	25.2029	25.0838	32.9976	0.506062	0.365384	10.149	-1
173.55	92.2747	Inf	0.00173501	25.1437	25.2028	25.0847	32.998	0.505286	0.410994	10.1486	-1
175.5	92.3553	Inf	0.00175451	25.1401	25.2023	25.078	32.9978	0.505909	0.463915	10.1488	-1
177.45	92.3876	Inf	0.00177398	25.1382	25.199	25.0773	32.9978	0.505592	0.491147	10.1491	-1
179.4	92.4507	Inf	0.00179346	25.1527	25.2183	25.0871	32.999	0.504803	0.467601	10.149	-1
181.35	92.477	Inf	0.00181297	25.1499	25.2114	25.0884	32.9979	0.505474	0.365489	10.1491	-1
183.3	92.6123	Inf	0.00183251	25.149	25.2069	25.091	32.997	0.505469	0.462613	10.1491	-1
185.25	92.6617	Inf	0.00185198	25.1478	25.2226	25.073	32.996	0.50608	0.514898	10.1487	-1
187.2	92.7464	Inf	0.00187147	25.1407	25.2017	25.0797	32.9981	0.50669	0.53091	10.1489	-1
189.15	92.8212	Inf	0.00189097	25.1377	25.1964	25.079	32.9974	0.505228	0.525596	10.1489	-1
191.1	92.8963	Inf	0.00191044	25.1484	25.2017	25.0951	32.9996	0.506144	0.438689	10.1489	-1
193.05	93.0819	Inf	0.00192994	25.1387	25.1838	25.0936	32.9978	0.506112	0.529745	10.1489	-1
195	93.2381	Inf	0.00194949	25.142	25.2051	25.0789	32.9999	0.506194	0.555203	10.1484	-1
196.95	93.4687	Inf	0.00196896	25.1421	25.1924	25.0918	32.9979	0.506403	0.508915	10.149	-1
198.9	93.6437	Inf	0.00198846	25.1179	25.1617	25.0741	32.9981	0.506038	0.53319	10.1485	-1
200.85	93.7413	Inf	0.00200795	25.1517	25.2054	25.098	32.9983	0.505854	0.481397	10.149	-1
202.8	93.9305	Inf	0.00202746	25.1528	25.2111	25.0944	32.9983	0.507081	0.483595	10.1486	-1
204.75	94.0915	Inf	0.00204695	25.1316	25.1781	25.085	32.9977	0.507189	0.432924	10.1493	-1
206.7	94.2737	Inf	0.00206635	25.1389	25.2083	25.0696	32.9999	0.507265	0.497749	10.149	-1
208.65	94.3923	Inf	0.00208588	25.1457	25.19	25.1013	32.9989	0.505921	0.511595	10.1491	-1
210.6	94.36	Inf	0.00210539	25.1657	25.212	25.1194	32.9994	0.506112	0.482685	10.1486	-1
212.55	-0.210338	0.391628	0.00212488	25.1496	25.1936	25.1056	32.9976	0.506738	0.159628	10.147	-1
214.5	-0.184669	0.342315	0.00214437	25.1424	25.2039	25.0808	33.001	0.50746	0.0882553	10.1477	-1
215.35	-0.209538	0.339802	0.00215283	25.1394	25.197	25.0819	32.9988	0.506095	0.157025	10.147	-1