File: data/PrimaryData/Steel_4130/Tensile_test_1.csv
Displacement (mm),Load (N)
0.000483611,0.456651
0.000488366,4.14496
0.0006263,11.561
0.000654377,20.4556
0.000638812,32.7321
0.000908373,47.5912
0.000960377,72.4511
0.0011305,100.576
0.00138593,140.095
0.00162357,180.784
0.0019643,230.393
0.00230431,291.322
0.00270584,352.464
0.00315531,426.484
0.0035732,505.844
0.00418491,587.103
0.00491683,676.347
0.00549756,768.35
0.00619654,867.584
0.0069688,969.086
0.00746687,1069.91
0.00854008,1182.26
0.00920318,1288.59
0.00930629,1305.68
0.00944347,1339.06
0.0100798,1421.82
0.0104292,1501.71
0.0112703,1586.24
0.0119818,1673.21
0.0124356,1766.4
0.0128409,1862.01
0.013617,1960.66
0.0144064,2060.8
0.0151071,2163.17
0.0156755,2264.98
0.0166999,2363.3
0.0171273,2437.21
0.017244,2478.14
0.0178188,2530.92
0.0180062,2587.25
0.0185357,2637.54
0.0190809,2696.43
0.0191667,2753.65
0.0199142,2815.99
0.0202852,2875.74
0.0208809,2941.11
0.0213658,2997.32
0.0217312,3065.95
0.0219261,3133.64
0.0224602,3197.14
0.0232072,3266.72
0.0238753,3338.34
0.024466,3411.76
0.0246735,3486.14
0.02554,3561.96
0.025853,3634.22
0.0265706,3711.57
0.027152,3789.22
0.0278871,3868.51
0.0284997,3953.9
0.0288734,4035.07
0.0296082,4118.13
0.0301829,4206.53
0.0312738,4294.31
0.0315344,4385.66
0.0325105,4475.9
0.033555,4597.84
0.0340829,4672.32
0.0347734,4769.28
0.0358244,4867.86
0.0365955,4973.25
0.0374259,5075.41
0.0384227,5181.02
0.0391766,5285.8
0.0401039,5398.16
0.0410661,5506.64
0.0422464,5620.98
0.0431808,5732.34
0.0440125,5847.41
0.0453701,5968.92
0.0463097,6088.43
0.0473081,6209.6
0.0481782,6333.38
0.0496681,6454.62
0.0505448,6582.39
0.0520664,6712.35
0.0529523,6843.59
0.0542914,6976.25
0.0555905,7109.9
0.0570758,7247.23
0.0585246,7387.81
0.0599028,7530.64
0.0614915,7670.92
0.0629684,7814.25
0.0645393,7958.66
0.066253,8106.42
0.0680237,8253.41
0.069668,8399.35
0.0713185,8554.3
0.0733558,8705.11
0.0751974,8862.49
0.0771233,9010.74
0.0796592,9169.35
0.0815863,9330.35
0.0842324,9487.53
0.0868673,9645.57
0.089443,9805.75
0.0924803,9967.08
0.0954519,10128.5
0.098642,10286.3
0.102585,10446.5
0.106211,10604.7
0.110426,10757.5
0.114696,10914
0.120031,11068
0.125647,11212.6
0.131583,11362.1
0.138229,11501.2
0.151325,11892.3
0.17885,12235.6
0.209365,12539.3
0.243651,12805.7
0.281607,13033.5
0.322523,13240.9
0.36654,13431.3
0.411799,13600.6
0.458373,13759.5
0.506631,13911.5
0.555884,14054.1
0.605847,14191.1
0.656394,14317.7
0.707069,14444.4
0.759181,14564
0.811123,14679.2
0.863157,14789.6
0.915817,14898
0.968711,15000.3
1.02218,15102.1
1.07554,15197.2
1.12975,15292.7
1.18413,15385.1
1.23852,15469.5
1.33294,15554.6
1.43871,15637.2
1.54453,15713.5
1.65039,15789.9
1.75625,15865.8
1.86207,15935
1.96789,16004.5
2.07375,16074
2.17952,16137.5
2.28534,16203.4
2.3912,16261.8
2.49697,16320.9
2.60275,16379.6
2.70866,16436
2.81443,16488.5
2.9202,16541.8
3.02615,16588.7
3.13192,16638.8
3.23779,16686.9
3.34361,16728.8
3.44942,16772.3
3.55529,16815.7
3.6611,16854.8
3.76692,16896.6
3.87274,16936.6
3.97856,16972.4
4.08433,17010.8
4.19024,17044.8
4.29596,17076
4.40182,17110.9
4.50764,17140.7
4.61355,17170.8
4.71932,17199.4
4.82519,17226
4.931,17254.5
5.03687,17279.4
5.14268,17305.7
5.2485,17331.1
5.35437,17354.9
5.46023,17378.4
5.566,17400.6
5.67186,17420.1
5.77763,17442.8
5.8834,17462.1
5.98931,17479.9
6.09518,17497.6
6.20095,17514.1
6.30686,17529.1
6.41263,17547.7
6.51854,17561.8
6.62436,17573.9
6.73018,17590.5
6.83599,17602.8
6.94186,17615.3
7.04763,17630.7
7.15349,17641.2
7.25926,17649.6
7.36517,17661.3
7.47099,17672.875
7.57676,17679.1
7.68262,17690.2
7.78849,17697.1
7.8943,17707.8
8.00012,17711.6
8.10594,17718.7
8.21176,17726.2
8.31762,17731
8.42348,17737.7
8.5293,17743.3
8.63512,17744.9
8.74098,17752.8
8.8468,17756.6
8.95262,17756.3
9.05843,17765
9.16425,17762.9
9.27016,17763.2
9.37598,17770.6
9.48175,17768.8
9.58761,17765.6
9.69348,17771
9.79939,17771.6
9.90511,17766.1
10.011,17770.5
10.1168,17769.3
10.2226,17767.8
10.3284,17768.5
10.4343,17764.3
10.54,17762.9
10.646,17763.3
10.7518,17756.9
10.8576,17756.2
10.9635,17752.3
11.0693,17746.6
11.1751,17742.4
11.281,17737.9
11.3868,17732
11.4926,17726.2
11.5985,17718.8
11.7043,17714.2
11.8101,17704.9
11.9161,17700.4
12.0218,17693.5
12.1277,17685.6
12.2335,17673.8
12.3393,17668
12.4451,17655.7
12.551,17643.7
12.6568,17633.6
12.7626,17618.6
12.8685,17605.3
12.9744,17590.4
13.0802,17574.1
13.186,17556.6
13.2919,17539.6
13.3977,17515.8
13.5035,17493.4
13.6093,17469.2
13.7152,17438.1
13.8209,17408.4
13.9269,17374.7
14.0327,17332.3
14.1385,17284.6
14.2444,17235.3
14.3502,17178.7
14.456,17116.2
14.562,17043.8
14.6677,16969.7
14.7735,16885.4
14.8795,16795.4
14.9853,16699
15.0911,16592
15.197,16474.9
15.3028,16351.4
15.4087,16215.8
15.5145,16070
15.6205,15911.2
15.7262,15735.3
15.8322,15544.9
15.938,15331.5
16.0438,15088.1
16.1497,14813.3
16.2556,14475.9
16.3615,13978
16.4679,7041.33