File: data/PrimaryData/Steel_4130/Tensile_test_3.csv
Displacement (mm),Load (N)
0.000735712,1.13749
0.000847733,10.9976
0.000966916,23.647
0.00123,41.6765
0.00120425,68.9246
0.00159446,102.972
0.00166461,144.143
0.00198611,191.505
0.00229015,248.81
0.00280864,308.586
0.00309113,365.847
0.00330105,434.116
0.0038147,500.347
0.00408421,566.994
0.00468074,632.612
0.00496818,694.241
0.00526643,756.612
0.00548431,788.777
0.00536108,735.911
0.00544772,741.463
0.0055498,762.38
0.00595051,790.06
0.00597394,821.624
0.0064459,851.845
0.0065453,881.647
0.00673894,908.097
0.00671777,891.027
0.00691923,930.93
0.00716399,968.273
0.00748252,1004.87
0.00790009,1043.34
0.00806783,1083.58
0.00840062,1126.09
0.00897862,1167.45
0.00931249,1210.95
0.00948542,1251.04
0.00975264,1301.78
0.0102284,1350.03
0.0104874,1396.92
0.0108619,1454.08
0.0114926,1500.42
0.0118016,1560.25
0.0123178,1612.36
0.0125891,1672.42
0.0130494,1729.24
0.0137977,1791.71
0.014153,1858.24
0.0146737,1924.41
0.0152384,1988.11
0.0156687,2053.75
0.0162892,2124.36
0.0166291,2195.76
0.0173863,2269.62
0.0177764,2342.81
0.0187536,2421.1
0.0191957,2504.86
0.0198039,2586.2
0.0205212,2668.26
0.0208429,2749.76
0.021854,2842.74
0.0224524,2925.05
0.0231691,3018.37
0.023898,3109.59
0.024481,3205.63
0.0255238,3315.67
0.0262692,3408.04
0.0270586,3510.43
0.0276563,3613.9
0.0285711,3717.75
0.0296356,3826.42
0.0305658,3935.74
0.0313459,4043.45
0.0326824,4160.73
0.0335911,4275.19
0.0343787,4395.06
0.0350566,4513.84
0.0364148,4633.26
0.0374665,4758.72
0.0385694,4879.25
0.0398066,5007.8
0.0405799,5137.81
0.0418177,5269.18
0.0426773,5402.95
0.0441145,5542.3
0.0452389,5679.29
0.046494,5819.58
0.0476467,5961.21
0.0488026,6103.96
0.0502024,6250.9
0.0517413,6399.15
0.0530035,6548.79
0.0545971,6702.02
0.0560775,6856.1
0.0575571,7008.96
0.0590943,7165.65
0.0609842,7331.63
0.0626639,7488.48
0.0645676,7653.13
0.0663483,7814.44
0.0681626,7979.12
0.0705246,8144.18
0.072583,8308.19
0.0750474,8476.14
0.0775685,8642.26
0.0805479,8809.22
0.0835127,8973.49
0.0868338,9135.12
0.0905184,9296.6
0.0945955,9457.98
0.099564,9608.03
0.104787,9752.18
0.110923,9895.31
0.117866,10030.1
0.125374,10156.9
0.133796,10278.2
0.142693,10392.5
0.152557,10503.4
0.182755,10923.2
0.220833,11175.4
0.261533,11399.8
0.304413,11601.1
0.349657,11788.2
0.396649,11960.6
0.444936,12119.3
0.494409,12268.5
0.544504,12414.7
0.595331,12552.3
0.646168,12675.6
0.69773,12802
0.749376,12922.8
0.801734,13034.7
0.854667,13146.5
0.906821,13251.1
0.959713,13351.3
1.01361,13452.8
1.06646,13546.3
1.12025,13635
1.17456,13728.4
1.22919,13811.2
1.31436,13894.7
1.42027,13978.6
1.52604,14053.9
1.63181,14128.8
1.73768,14205.6
1.84359,14274.6
1.94926,14343.1
2.05518,14407.9
2.16099,14471.1
2.26681,14535
2.37263,14592.2
2.47849,14651
2.58421,14707.1
2.69022,14759.6
2.79599,14812.5
2.90176,14864.7
3.00762,14913.3
3.11349,14962.5
3.21926,15009.8
3.32503,15051.7
3.43089,15098.5
3.53671,15135.5
3.64257,15175.7
3.74839,15216.2
3.85425,15251.4
3.96007,15286.1
4.06593,15325.5
4.1718,15357.6
4.27748,15389.9
4.38343,15424.2
4.4892,15454.1
4.59497,15483.6
4.70089,15512.5
4.80666,15540.9
4.91247,15567.7
5.01838,15593
5.1242,15617.1
5.22992,15643
5.33588,15664.4
5.44165,15686.7
5.54752,15707.6
5.65333,15726.4
5.7592,15748.7
5.86497,15767.8
5.97088,15786.9
6.07665,15806.4
6.18247,15822.2
6.28833,15836.4
6.39415,15855.9
6.49992,15868
6.60583,15881.1
6.7116,15899.2
6.81742,15907.2
6.92328,15921.5
7.02919,15934.8
7.13491,15943.9
7.24078,15954.7
7.34669,15967.9
7.45251,15975.8
7.55823,15986.1
7.66419,15996.2
7.76991,16001.7
7.87577,16014.9
7.98159,16021
8.08741,16026.6
8.19318,16031.7
8.29909,16038.6
8.40486,16044.6
8.51077,16051.5
8.61659,16054.5
8.72241,16059.8
8.82832,16064.8
8.93413,16062.4
9.0399,16069.6
9.14577,16073.6
9.25163,16073.9
9.35745,16076.9
9.46326,16079.9
9.56904,16078.8
9.67495,16081.9
9.78076,16084.3
9.88653,16081.4
9.9924,16082.7
10.0983,16081.1
10.2041,16080.4
10.31,16080
10.4159,16077.7
10.5216,16075.2
10.6275,16074.3
10.7334,16074
10.8391,16070.4
10.9449,16067.5
11.0508,16063.4
11.1566,16062.2
11.2624,16054.4
11.3683,16052.9
11.474,16047.6
11.5799,16038.6
11.6858,16036.4
11.7916,16029.4
11.8974,16021.1
12.0033,16014.2
12.1092,16010.1
12.215,15999.1
12.3208,15992.1
12.4267,15983.4
12.5324,15974.5
12.6383,15965.6
12.7442,15953.6
12.8499,15942.5
12.9558,15932.3
13.0617,15918.8
13.1674,15903.6
13.2733,15891
13.3792,15873.6
13.485,15857
13.5908,15840.1
13.6967,15819.2
13.8024,15798.1
13.9083,15773.9
14.0142,15750.8
14.1199,15721.5
14.2258,15689.6
14.3316,15656.9
14.4375,15619.4
14.5433,15571.3
14.6492,15525.8
14.755,15474.1
14.8609,15411.2
14.9667,15348.6
15.0726,15273.6
15.1784,15192.4
15.2843,15109.4
15.3901,15012.9
15.4959,14906.2
15.6018,14791
15.7077,14660.7
15.8135,14511.2
15.9194,14345.2
16.0252,14131.6
16.1311,13759.2
16.2371,12978
16.3434,9918.6
16.4375,1456.79