File: data/PrimaryData/Steel_4130/Tensile_002.csv
Displacement (mm),Load (N)
-0.000225145,-21.3756
5.08721e-06,-19.5659
0.000112715,-17.675
8.85234e-05,-14.2957
8.51067e-05,-6.89549
7.35421e-05,2.20438
0.00012633,14.5991
0.000177914,29.5722
0.000573087,34.9534
0.000424403,64.6861
0.00103638,99.8247
0.000984248,140.389
0.00100597,190.234
0.0018979,256.42
0.00218712,322.467
0.00267321,397.643
0.00313492,482.436
0.00368207,567.846
0.00426263,666.96
0.00504732,761.799
0.00581026,866.976
0.00669995,974.387
0.00713261,1081.23
0.00793008,1185.09
0.00795053,1209.17
0.00789675,1222.72
0.00818794,1262.58
0.00814021,1304.68
0.00851403,1331.26
0.00876369,1361.48
0.00888887,1402.18
0.0091411,1443.61
0.00932396,1484.27
0.00975759,1528.91
0.0101676,1577.25
0.00999505,1625.69
0.0104442,1677.5
0.0109994,1731.33
0.0109237,1785.06
0.0116312,1841.62
0.011698,1902.5
0.0123552,1965.55
0.0126606,2026.18
0.0130423,2095.43
0.0134894,2157.88
0.0137868,2230.22
0.0143237,2297.13
0.0148058,2373.39
0.0151367,2443.47
0.0158395,2520.64
0.016391,2602.62
0.01649,2683.49
0.0170851,2762.98
0.0176152,2848.41
0.0183138,2940.33
0.018925,3032.79
0.0193223,3125.42
0.0201235,3220.64
0.0209359,3319.21
0.0211856,3425.1
0.022257,3530.53
0.0230814,3634.81
0.0238928,3742.61
0.0242975,3856.44
0.0254257,3968.73
0.0263602,4087.7
0.0268475,4203.19
0.0277404,4327.96
0.0286562,4465.09
0.0293634,4590.09
0.0304942,4722.19
0.0310808,4853.6
0.0322334,4986.29
0.0331872,5123.85
0.0345715,5262.66
0.0353093,5406.69
0.0363287,5553.35
0.0371535,5700.69
0.0388485,5854.91
0.0400258,6006.39
0.0411343,6160.94
0.0421548,6321.11
0.0437989,6483.67
0.0448358,6643.96
0.0464169,6811.25
0.047849,6981.28
0.0495766,7155.09
0.0508953,7329.56
0.0527007,7501.42
0.0546538,7683.56
0.0560406,7863.51
0.0582417,8045.97
0.0601021,8227.625
0.0620028,8412.87
0.0643737,8603.1
0.0663744,8789.6
0.0690286,8977.75
0.0711667,9164.01
0.0738422,9355.11
0.076885,9540.14
0.0799717,9727.92
0.0832873,9910.94
0.0865447,10092.5
0.0904963,10274.7
0.0951373,10453.8
0.0997633,10620.5
0.10533,10786.8
0.111783,10951.4
0.118126,11104.3
0.125807,11246.4
0.133904,11382.5
0.143206,11512.6
0.15278,11636
0.162876,11750.5
0.173806,11863.6
0.185272,11969.7
0.197327,12069.8
0.209848,12166
0.223143,12258.7
0.236367,12348.5
0.252389,12561.5
0.303417,12861.6
0.355359,13079.9
0.408028,13277.2
0.461414,13460.6
0.516019,13628.8
0.570419,13784.7
0.625587,13935.4
0.680845,14072
0.736289,14202.4
0.791718,14331
0.847401,14447.9
0.903636,14565.5
0.959931,14677
1.01597,14779.2
1.07252,14883.3
1.12919,14980.4
1.18547,15069.9
1.24239,15164.5
1.34134,15247.8
1.44716,15328.8
1.55298,15412.1
1.65879,15488.9
1.76461,15562.5
1.87047,15634.7
1.97629,15705.4
2.08202,15774.4
2.18788,15835.8
2.29374,15899.1
2.39956,15960.9
2.50542,16016.8
2.61124,16073
2.71706,16127.7
2.82288,16182.3
2.92874,16232.1
3.03451,16283.3
3.14037,16328.4
3.24614,16375.3
3.35201,16418.4
3.45778,16461.2
3.56369,16504.8
3.66946,16543.8
3.77537,16582
3.88114,16620.6
3.98701,16656.4
4.09282,16686.7
4.19869,16724.2
4.3045,16755.6
4.41032,16785.4
4.51614,16820.8
4.622,16847.3
4.72777,16873.7
4.83359,16900
4.9395,16925.7
5.04527,16951.3
5.15109,16976.6
5.257,16998.8
5.36277,17020.4
5.46863,17042
5.57445,17062.7
5.68031,17085.1
5.78608,17102.4
5.89195,17122.7
5.99772,17139.8
6.10358,17155.8
6.2094,17174.4
6.31522,17190.7
6.42108,17202
6.5269,17220.2
6.63276,17233.3
6.73853,17243.6
6.84444,17257.8
6.95021,17269.3
7.05608,17278.1
7.16194,17292
7.26776,17301.3
7.37348,17309.2
7.47944,17323.6
7.58526,17331.3
7.69098,17338.4
7.79684,17349.1
7.90271,17353.2
8.00848,17359.4
8.11444,17367.9
8.22016,17371.3
8.32602,17375.4
8.43189,17381
8.53775,17387.7
8.64347,17390.8
8.74943,17393.6
8.8552,17397.1
8.96102,17402
9.06688,17404.7
9.17275,17407.3
9.27847,17409.2
9.38438,17408.7
9.4902,17413.9
9.59602,17413
9.70183,17412.3
9.8077,17412.4
9.91351,17411.7
10.0193,17410.6
10.1252,17411.3
10.2311,17408.6
10.3369,17407.3
10.4427,17408.4
10.5486,17405
10.6543,17401.1
10.7602,17398.7
10.8661,17394.1
10.9718,17389.9
11.0777,17385.5
11.1836,17380.3
11.2894,17376.7
11.3952,17369.7
11.5011,17362.2
11.6068,17358.1
11.7127,17350.6
11.8186,17343.1
11.9244,17339.4
12.0303,17328.9
12.1361,17320.6
12.2419,17315.1
12.3477,17300.6
12.4536,17294.7
12.5593,17280.1
12.6653,17268.4
12.771,17256.3
12.8769,17239.9
12.9827,17223.7
13.0886,17212.1
13.1944,17192
13.3003,17172.4
13.4061,17153
13.5119,17127.3
13.6178,17101.6
13.7237,17073.8
13.8294,17041.5
13.9353,17005.7
14.0411,16966.8
14.147,16920.5
14.2527,16871.1
14.3587,16816.4
14.4644,16752.3
14.5703,16685.4
14.6762,16609.4
14.782,16524.8
14.8879,16439.9
14.9938,16342.7
15.0995,16239.7
15.2054,16127.6
15.3113,16004.5
15.4171,15874
15.5229,15731
15.6288,15571
15.7346,15403.9
15.8405,15210.6
15.9464,14989
16.0522,14718.9
16.1581,14229.2
16.2644,11670.5
16.3101,-3970.16