File: data/PrimaryData/Steel_1018/Tensile_test_6.csv
Displacement (mm),Load (N)
-0.00109404,-9.30708
0.000189593,-3.95267
0.000778627,-0.802782
0.000543066,0.335391
0.00128621,11.0928
-0.00057666,12.2001
0.0011215,28.9949
0.000342501,36.2212
-0.000264304,48.9416
0.00154478,84.9523
0.000638527,111.592
0.00227528,155.764
0.000589531,192.56
0.00303558,257.492
0.000753127,301.439
0.000999067,332.598
0.00133394,341.431
0.00117974,334.534
0.00238875,360.509
0.00161604,371.89
0.00175844,405.699
0.00242864,426.685
0.00360791,464.043
0.00362968,490.277
0.00314226,510.979
0.00320447,549.834
0.00295414,581.274
0.00499989,625.182
0.00285415,649.567
0.00365974,687.17
0.00555454,732.746
0.00578261,773.379
0.00451977,804.628
0.00576663,851.265
0.00435857,889.432
0.0054231,938.654
0.00570824,980.255
0.00720759,1033.26
0.00558417,1066.55
0.00636208,1120.98
0.00786787,1177.92
0.00594349,1219.93
0.00586175,1270.56
0.00616257,1323.5
0.00886455,1388.37
0.00739346,1445.32
0.00793816,1499.52
0.00963197,1566.49
0.00984775,1634.55
0.00968339,1692.35
0.010818,1760.83
0.0113082,1831.56
0.0110966,1902.85
0.0104773,1972.68
0.010432,2042.81
0.0128013,2127.52
0.0108913,2193.87
0.0128054,2279.88
0.0139153,2358.22
0.0126408,2435.85
0.0145546,2532.31
0.0149809,2620.46
0.0162915,2708.31
0.0156543,2800.6
0.0177176,2894.33
0.0164836,2982.64
0.019117,3084.23
0.0194865,3197.23
0.0182942,3292.49
0.0187846,3398.74
0.0192709,3497.86
0.0212355,3609.12
0.022112,3721.48
0.0240723,3843.64
0.0250207,3957.94
0.0240292,4064.28
0.0261684,4183.95
0.0276335,4304.7
0.0269173,4421.22
0.0279807,4552.25
0.0307386,4680.63
0.0315776,4806.2
0.0302381,4925.44
0.0317857,5053.76
0.033183,5192.6
0.0357348,5338.04
0.036674,5466.61
0.037624,5598.85
0.0372299,5732.66
0.0396292,5879.13
0.040784,6020.3
0.041421,6163.01
0.0449466,6317.07
0.0447263,6455.65
0.047471,6611.06
0.0487169,6762
0.0490168,6911.25
0.0506431,7064.17
0.0540571,7228.24
0.0568873,7393.46
0.0573658,7544.57
0.0606212,7710.74
0.0632075,7874.35
0.0654103,8028.68
0.0675994,8185.92
0.067979,8346.1
0.0732141,8520.7
0.0758232,8684.4
0.0775303,8837.81
0.082235,9006.57
0.084806,9160.61
0.0902896,9326.98
0.0936472,9480.58
0.0973436,9632.46
0.101976,9778.28
0.107638,9929.99
0.112997,10060.9
0.118996,10201.3
0.125974,10327.4
0.134762,10459.1
0.143643,10669.3
0.175268,11037.6
0.21712,11262.1
0.262316,11411.6
0.313708,11514
0.373101,11587.1
0.436264,11639.8
0.502565,11685.3
0.571875,11726
0.639929,11750.2
0.711007,11781
0.779473,11789.3
0.853413,11819
0.92441,11834.9
0.99545,11846.2
1.06968,11868.8
1.14176,11881.8
1.21451,11884.6
1.30441,11900.6
1.41023,11908.1
1.51605,11920.8
1.62186,11923.1
1.72773,11928.9
1.8335,11943.8
1.93941,11947.6
2.04527,11949
2.15109,11959.6
2.25691,11952.4
2.36277,11960.6
2.46859,11965.2
2.5744,11971.6
2.68027,11974
2.78608,11967
2.89186,11981.5
2.99777,11975.1
3.10354,11982.8
3.2094,11987.9
3.31522,11980.6
3.42103,11984
3.5269,11991.2
3.63276,11979
3.73858,11986.5
3.84449,11980.4
3.95026,11977.3
4.05608,11989.9
4.16199,11980
4.26771,11981.5
4.37358,11986.7
4.47939,11982.5
4.58521,11978.8
4.69103,11987.3
4.79689,11984.4
4.90266,11977.7
5.00857,11982.4
5.11439,11980.6
5.22025,11966.6
5.32612,11972.7
5.43198,11967.9
5.5378,11961.5
5.64362,11969.5
5.74943,11957
5.85525,11952.4
5.96111,11962.5
6.06693,11960.9
6.17275,11945.4
6.27861,11942.7
6.38438,11948.7
6.49034,11940.3
6.59606,11943.2
6.70193,11940.6
6.80779,11928.2
6.91361,11919.9
7.01943,11924.7
7.12529,11920.8
7.23106,11914.4
7.33692,11910.6
7.44279,11905.1
7.54856,11898.7
7.65442,11904.4
7.76024,11901.1
7.86606,11895.4
7.97187,11880
8.07774,11883.6
8.18355,11875.6
8.28942,11872.8
8.39533,11868.5
8.50115,11861.5
8.60696,11853.9
8.71283,11844.3
8.81864,11845.7
8.92441,11834
9.03028,11829.6
9.1361,11825.8
9.24191,11812.4
9.34778,11810.5
9.45359,11808.7
9.55941,11789.4
9.66527,11785.7
9.77119,11777.1
9.87691,11765.3
9.98282,11764.7
10.0886,11754.2
10.1945,11740.8
10.3003,11744.4
10.4062,11731.8
10.5119,11727.3
10.6178,11719
10.7237,11699
10.8294,11698.4
10.9353,11689.5
11.0411,11666.4
11.1469,11665.8
11.2527,11647.6
11.3585,11642.7
11.4644,11627.6
11.5703,11606.6
11.6762,11596.2
11.7819,11575.5
11.8879,11557.2
11.9937,11548.8
12.0995,11523.875
12.2053,11509.6
12.3112,11489.1
12.4169,11464.2
12.5229,11434.6
12.6287,11411.5
12.7345,11392.9
12.8404,11361.1
12.9462,11323.7
13.052,11291
13.1578,11254.1
13.2637,11208.1
13.3695,11164.3
13.4753,11115.6
13.5812,11066.7
13.6871,11015.9
13.7928,10955.5
13.8988,10892.7
14.0046,10823.7
14.1103,10755
14.2163,10680.2
14.3221,10595.5
14.4279,10518.8
14.5338,10420.4
14.6397,10327.7
14.7455,10214.2
14.8514,10108.6
14.9573,9995.56
15.063,9870.68
15.169,9727.41
15.2748,9592.67
15.3807,9436.39
15.4865,9263.48
15.5923,9081.06
15.6981,8885.14
15.804,8675.78
15.9098,8438.13
16.0157,8175.93
16.1217,7897.65
16.2275,7573.54
16.3333,7200.28
16.4393,6750.93
16.5457,2427.7
16.5546,-3635.45