File: data/PrimaryData/Steel_1018/Tensile_test_5.csv
Displacement (mm),Load (N)
0.000130242,1.19146
0.00036061,9.0691
0.000206356,17.3602
0.000448445,28.0717
0.000727778,48.115
0.000711544,76.7648
0.000775611,111.611
0.00112991,146.843
0.00138233,181.467
0.00142764,212.83
0.0016499,229.213
0.00165855,241.195
0.00168438,256.248
0.00190573,278.041
0.00205377,300.248
0.0017335,273.819
0.00197428,290.97
0.00188639,310.707
0.00202697,332.89
0.00216089,351.699
0.00246189,377.52
0.00249665,403.398
0.0026206,423.591
0.00276409,449.208
0.00289263,479.391
0.00290186,508.324
0.00303911,538.84
0.00341711,568.444
0.00358567,600.444
0.00370046,634.495
0.00387794,668.284
0.00416887,705.457
0.00438747,741.52
0.00466291,782.805
0.00457078,821.225
0.004789,864.134
0.00522877,911.354
0.00553106,954.883
0.00575467,1002.19
0.00608125,1054.54
0.00638301,1101.37
0.00640701,1160.24
0.00714162,1208.8
0.00725986,1265.95
0.00762677,1322.19
0.00804565,1380.35
0.00822132,1439.28
0.00862362,1504.18
0.00888121,1563.38
0.00963572,1628.82
0.00965704,1695.25
0.0102952,1764.39
0.0106528,1835.17
0.0112109,1906.48
0.011654,1980.33
0.0122422,2057.46
0.0125397,2136.5
0.0131503,2214.34
0.0134019,2293.52
0.0140633,2380.05
0.0143532,2460.85
0.0150265,2550.03
0.0156243,2636.62
0.0162156,2730.69
0.0166684,2827.31
0.0174891,2921.15
0.0178638,3021.29
0.0186962,3118.83
0.0191749,3217.64
0.0199876,3321.29
0.0205155,3425.87
0.0215608,3533.92
0.0221382,3646.81
0.0231822,3756.73
0.0237441,3873.6
0.0245719,3987.69
0.0254138,4106.52
0.0263204,4234.67
0.0272809,4358.27
0.0280312,4483.98
0.0289515,4613
0.0297698,4744.79
0.0308804,4875.38
0.0318151,5012.18
0.032918,5147.8
0.0339307,5287.85
0.035135,5431.32
0.0362216,5576.2
0.0376506,5726.52
0.0385212,5875.75
0.0398612,6028.84
0.0409961,6179.04
0.0425801,6336
0.0434696,6494.4
0.0454899,6653.92
0.0466121,6814.5
0.0483877,6984.25
0.0497849,7146.46
0.0515097,7313.67
0.0531488,7483.9
0.0551067,7651.63
0.0566683,7822.02
0.0584917,7998.21
0.0603991,8174.01
0.0625028,8351.48
0.0647634,8528.17
0.0672258,8708.28
0.0694657,8890.97
0.0720897,9069.49
0.0744965,9246.36
0.0772656,9429.61
0.0802472,9604.77
0.083304,9786.97
0.0863249,9963.22
0.0899719,10146.3
0.0937802,10324.6
0.0975973,10500.2
0.101918,10673.3
0.11754,11289.4
0.135612,11712.3
0.158207,12080.6
0.186864,12373.6
0.222828,12594
0.266078,12756.3
0.316423,12866.4
0.372291,12940.7
0.431551,12997.2
0.49436,13040.6
0.55897,13077.2
0.624635,13103.5
0.692119,13129.4
0.760132,13151.8
0.829203,13170.2
0.898421,13189.5
0.968455,13204.8
1.03915,13219.1
1.11043,13232
1.18173,13243.4
1.25577,13253.1
1.36163,13266.7
1.46745,13273.5
1.57326,13281.2
1.67908,13292.4
1.78495,13295.9
1.89072,13301.7
1.99663,13311
2.10249,13312.6
2.20821,13316.3
2.31413,13322.1
2.4199,13323.1
2.52571,13329.2
2.63162,13331.2
2.73744,13331.7
2.84321,13335.1
2.94917,13339.8
3.05499,13339.6
3.16071,13343.2
3.26667,13344.9
3.37248,13346.8
3.4783,13346.1
3.58412,13347.4
3.68998,13348.9
3.79571,13346.9
3.90157,13346.6
4.00739,13346.5
4.11325,13343.8
4.21911,13342.1
4.32493,13346.9
4.43075,13345.2
4.53657,13342.5
4.64243,13345
4.7482,13341.7
4.85406,13340.1
4.95993,13341.7
5.0657,13338.1
5.17156,13336.1
5.27747,13337
5.38324,13332.9
5.48901,13331.2
5.59497,13329.3
5.70074,13323.8
5.80661,13323.3
5.91247,13319
6.01824,13315.3
6.12406,13316.6
6.22997,13312.1
6.33574,13309.6
6.44156,13308.3
6.54747,13303.8
6.65324,13302.5
6.7591,13299.2
6.86492,13292.6
6.97078,13291
7.0766,13287
7.18246,13279.2
7.28823,13279.2
7.3941,13273.9
7.49996,13268.5
7.60573,13265.9
7.7116,13261.9
7.81741,13255.6
7.92323,13252.3
8.02909,13247.3
8.13491,13243
8.24073,13237.4
8.34659,13231.3
8.45241,13225.5
8.55827,13222.7
8.66418,13214.1
8.76991,13209.5
8.87582,13204.2
8.98164,13197
9.0875,13190.9
9.19332,13184.2
9.29913,13178.2
9.4049,13173.1
9.51086,13164.9
9.61658,13158.9
9.72245,13151.8
9.82827,13141.8
9.93413,13135.9
10.0399,13130.6
10.1458,13117.5
10.2516,13111.5
10.3575,13100
10.4633,13090.8
10.5692,13080.4
10.675,13070.7
10.7808,13061.1
10.8866,13051.6
10.9925,13038.6
11.0983,13026.7
11.2041,13017.2
11.31,13002.1
11.4158,12988.9
11.5216,12973.5
11.6275,12959.3
11.7333,12941.4
11.8392,12922.8
11.945,12906.3
12.0508,12886.5
12.1567,12864.1
12.2625,12842.3
12.3684,12820.4
12.4742,12792.3
12.5801,12766.4
12.6858,12738.7
12.7917,12704.5
12.8975,12673.4
13.0034,12635.1
13.1092,12594
13.2151,12553.9
13.3209,12507.3
13.4267,12454.1
13.5326,12405.8
13.6384,12345.6
13.7442,12287.2
13.8501,12226.1
13.9559,12156
14.0617,12082.6
14.1676,12010.9
14.2735,11927.6
14.3792,11842.1
14.4852,11752
14.591,11654.6
14.6968,11547.1
14.8027,11437.9
14.9086,11317.1
15.0143,11190.7
15.1203,11054.2
15.2262,10908.7
15.3319,10752.8
15.4379,10584.8
15.5437,10401.1
15.6495,10204
15.7554,9986.55
15.8613,9746.03
15.9671,9479.04
16.073,9178.05
16.1789,8830.14
16.2847,8426.83
16.3907,7939.27
16.4472,6961.26