File: data/PrimaryData/Steel_1018/Tensile_002.csv
Displacement (mm),Load (N)
0.000736616,-31.6536
0.000691446,-31.2005
0.000589147,-28.477
0.000409709,-22.004
0.000495417,-12.6346
0.000525294,0.174052
0.000720055,15.7244
0.00078589,40.926
0.00100194,71.7601
0.00117564,108.95
0.00168089,156.841
0.0018343,206.436
0.00193137,257.26
0.00253521,310.907
0.00260604,361.506
0.002979,392.224
0.00293755,399.182
0.00279539,405.72
0.00305715,432.893
0.00308031,458.772
0.00357172,494.26
0.00348961,523.388
0.00380747,563.267
0.00391302,596.48
0.00431278,627.937
0.00415384,637.931
0.00445033,660.099
0.00464703,691.415
0.00467754,722.934
0.00472584,756.735
0.00511939,793.815
0.00510269,830.487
0.0053443,870.657
0.00543366,906.858
0.00595026,950.219
0.00605054,995.043
0.00638885,1043.48
0.00633339,1092.84
0.00662598,1139.82
0.00712357,1189.71
0.00748717,1243
0.0076188,1297.31
0.00792436,1351.24
0.00826558,1414.65
0.00851595,1467.93
0.009024,1534.74
0.00941162,1595.02
0.00959817,1664.17
0.0101002,1731.99
0.0103855,1799.98
0.0107514,1874.03
0.0110433,1950.33
0.0117485,2029.65
0.0123,2106.44
0.0125683,2186.24
0.0131984,2270.45
0.0137648,2356.4
0.0143122,2444.76
0.0147042,2530.51
0.0152762,2618.26
0.0156301,2709.4
0.0166316,2808.03
0.0170618,2902.69
0.0175715,2999.84
0.0184171,3104.55
0.0189039,3204.35
0.0198651,3315.11
0.0206773,3440.98
0.0212355,3540.93
0.0220139,3652
0.0230835,3765.66
0.0239694,3884.79
0.0245619,4002.39
0.0255358,4123.89
0.0266788,4247.13
0.0278145,4374.33
0.028608,4501.99
0.0297778,4635.62
0.030729,4768.18
0.0318257,4906.85
0.032916,5042.33
0.033891,5178.94
0.0354334,5320.76
0.0366144,5467.09
0.0381619,5610.35
0.0391586,5760.29
0.0408511,5913.58
0.0422174,6065.27
0.0437358,6224.44
0.0455953,6379.11
0.0468748,6535.72
0.0488778,6696.04
0.0504917,6858.44
0.0523373,7023.03
0.0543279,7186.93
0.0562673,7348.31
0.0583785,7515.75
0.0606123,7686.86
0.0632734,7850.95
0.0658018,8026.74
0.0680431,8193.74
0.0709701,8365.5
0.0739719,8532.72
0.0770432,8703.65
0.0803743,8872.62
0.0838992,9036.5
0.087826,9200.85
0.0916214,9364.58
0.0959952,9531.8
0.100792,9692.85
0.105871,9850.02
0.111174,10003.1
0.116941,10156.7
0.123208,10302.1
0.130038,10449.4
0.137309,10586.5
0.145362,10717.125
0.153905,10850
0.162934,10976.7
0.172718,11096
0.182676,11205.5
0.222348,11697.2
0.264923,11981.2
0.309714,12230.8
0.356957,12455
0.405649,12657
0.45553,12849.7
0.506636,13026.8
0.558189,13195.7
0.610053,13360.7
0.66252,13514.2
0.71534,13659.1
0.768049,13802.8
0.820865,13936.6
0.874263,14069.5
0.927846,14199.5
0.981628,14317.5
1.03535,14439.4
1.0896,14553.7
1.14413,14660.1
1.19891,14767.7
1.25719,14872.8
1.36296,14970.4
1.46883,15067.8
1.57465,15158.7
1.68046,15248
1.78628,15337.8
1.89214,15417
1.99792,15502.5
2.10378,15579.6
2.20964,15654.9
2.31541,15728.3
2.42118,15802.6
2.52705,15868.7
2.63286,15937.1
2.73868,16005.4
2.8445,16064.8
2.95032,16127.3
3.05623,16182.4
3.162,16240.1
3.26781,16296.4
3.37368,16348.3
3.47945,16399.4
3.58531,16451.2
3.69118,16499.3
3.7969,16547.5
3.90281,16593.8
4.00853,16637.5
4.1144,16681.5
4.22022,16720.9
4.32608,16763.7
4.4319,16802.6
4.53781,16837.4
4.64358,16876.3
4.74944,16912.5
4.85526,16942.5
4.96112,16977.9
5.06689,17012.1
5.17276,17037.9
5.27857,17070
5.38439,17100.6
5.49021,17124.1
5.59603,17154.3
5.70184,17178.8
5.80766,17202.7
5.91352,17228.4
6.01943,17252.6
6.12521,17272.9
6.23102,17297.375
6.33689,17317.25
6.4427,17337.6
6.54847,17357.3
6.65438,17376
6.76016,17393.1
6.86602,17410.8
6.97188,17427.9
7.07765,17443.9
7.18347,17457.5
7.28933,17471.4
7.39515,17490.7
7.50092,17497
7.60683,17513.125
7.7126,17526.4
7.81847,17536.6
7.92433,17548.4
8.03015,17559.5
8.13597,17566.7
8.24183,17581.2
8.34769,17588.8
8.45346,17593.9
8.55933,17607.3
8.66514,17610.6
8.77096,17617.5
8.87683,17627.7
8.9826,17632.1
9.08841,17637.5
9.19432,17646.2
9.30019,17649.3
9.40591,17653.7
9.51187,17660.6
9.61759,17661.5
9.7235,17664.3
9.82927,17669
9.93518,17669.7
10.0409,17672.2
10.1469,17676.1
10.2527,17676.2
10.3584,17678
10.4643,17677.9
10.5701,17678.8
10.6759,17679.5
10.7818,17679.4
10.8876,17680.6
10.9934,17677.2
11.0993,17674.9
11.2051,17677.3
11.3109,17671
11.4168,17667.2
11.5227,17669.875
11.6285,17665.3
11.7343,17657.2
11.8402,17658.7
11.9459,17652.2
12.0518,17643.7
12.1577,17640
12.2634,17634
12.3692,17627.5
12.4752,17620.8
12.5811,17614
12.6868,17604.7
12.7927,17598.8
12.8985,17585.5
13.0043,17577.4
13.1102,17564.6
13.216,17552.8
13.3218,17538.8
13.4277,17526.4
13.5335,17511.3
13.6393,17494.2
13.7452,17473.2
13.851,17453.6
13.9568,17428.5
14.0627,17399.9
14.1685,17372.8
14.2743,17338.625
14.3802,17298.8
14.4861,17257.2
14.5918,17207.4
14.6978,17151.9
14.8036,17090.7
14.9094,17021.1
15.0152,16944.1
15.1211,16863.7
15.2269,16768.8
15.3328,16673.5
15.4387,16565.7
15.5445,16444.9
15.6503,16321.6
15.7562,16184.6
15.8621,16032.9
15.9679,15871.2
16.0737,15693.9
16.1796,15496.5
16.2855,15285.6
16.3914,15039.5
16.4972,14719
16.6031,14290
16.7093,12232.2
16.8154,9599.52
16.8687,-4269.48