File: data/PrimaryData/Steel_1018/Tensile_003.csv
Displacement (mm),Load (N)
0.000414736,0.0882291
0.000391995,8.53149
0.000494587,17.9718
0.000463991,37.4502
0.000595395,64.034
0.000979751,94.7725
0.00111713,131.13
0.00152676,177.21
0.00164139,233.675
0.00204428,293.067
0.00232538,352.595
0.00299925,422.886
0.00288648,482.422
0.00363983,541.858
0.00378975,596.899
0.00416566,648.296
0.0045781,697.143
0.0045948,675.502
0.00446878,655.8
0.00442474,681.496
0.00454303,706.735
0.00490241,741.592
0.00516773,777.826
0.00534707,810.09
0.00568425,843.282
0.00607633,883.952
0.00607707,923.567
0.00635311,967.668
0.00672711,1007.18
0.0071754,1049.47
0.00742076,1093.34
0.00807362,1141.22
0.00807036,1188.81
0.00839863,1235.79
0.00890761,1279.73
0.0094281,1330.64
0.0098701,1382.24
0.0101449,1431.66
0.0105963,1488.38
0.010955,1544.25
0.0113543,1600.51
0.0120934,1659.78
0.0121526,1721.17
0.0127263,1779.43
0.0130847,1845.65
0.0138218,1903.06
0.0141399,1969.99
0.0146519,2032.25
0.0150323,2103
0.0155157,2168.83
0.0160906,2236.82
0.0165117,2306.24
0.0169769,2370.68
0.0175217,2436.88
0.0179156,2504.22
0.0178627,2574.54
0.0189133,2647.75
0.0193768,2720.1
0.0200506,2795.55
0.0202015,2872.1
0.0208976,2954.1
0.0216702,3033.39
0.0223976,3113.2
0.0228884,3193.49
0.0233657,3280.03
0.0241109,3369.13
0.0246753,3452.82
0.0252471,3559.51
0.0259217,3645.38
0.026905,3741.09
0.0277364,3838.18
0.0284974,3934.05
0.0291912,4037.19
0.0300869,4138.58
0.0308411,4240.51
0.0319213,4346.28
0.0328204,4456.26
0.0337638,4564.78
0.0344696,4676.88
0.0358237,4788.09
0.0369739,4900.43
0.0378364,5014.31
0.0387033,5128.39
0.0400767,5249.41
0.0412878,5371.72
0.0425577,5491.51
0.0438409,5617.37
0.0448806,5746.91
0.0463902,5871.31
0.0476469,6005.65
0.0491766,6133.98
0.0504396,6269.47
0.0519227,6405.52
0.0537874,6541.12
0.0555162,6681.34
0.0570561,6823.13
0.058956,6964.84
0.0606802,7107.66
0.0625912,7252.97
0.0645687,7394.97
0.0668914,7542.12
0.0688956,7687.53
0.0714255,7835.43
0.0738238,7984.19
0.0761827,8138.54
0.0788422,8294.01
0.081662,8443.43
0.0847499,8598.9
0.0880196,8750.09
0.0914493,8904.63
0.0951098,9053.28
0.0990078,9206.9
0.103192,9354.33
0.10784,9500.78
0.11283,9646.9
0.118234,9790.08
0.124046,9927.73
0.130454,10059.9
0.137839,10187.9
0.14587,10308.4
0.154859,10420.9
0.164745,10523.5
0.175075,10616.3
0.186726,10701.6
0.222454,11037.8
0.271206,11177.5
0.325273,11270.8
0.382908,11332.8
0.442624,11379.6
0.504499,11415.3
0.567477,11445
0.631369,11466.4
0.695557,11490.5
0.760851,11505.9
0.826582,11525.1
0.892625,11538.9
0.958958,11554.7
1.02591,11564.4
1.09324,11576.1
1.16069,11581.5
1.22835,11590.8
1.31697,11599.2
1.41575,11606.7
1.51444,11613.7
1.61327,11617.6
1.71211,11622.9
1.8108,11626.6
1.90963,11631.1
2.00851,11633.6
2.1071,11639.7
2.20598,11640.5
2.30477,11644.3
2.40341,11644.3
2.50224,11648
2.60117,11649.1
2.69981,11652
2.79869,11653.8
2.89747,11651.9
2.99612,11654.2
3.09499,11655.2
3.19383,11657.1
3.29242,11654.8
3.39126,11655.2
3.49018,11656.7
3.58878,11658.3
3.68766,11656.1
3.78644,11657.5
3.88513,11654.4
3.98396,11656.4
4.08279,11652.9
4.18139,11651
4.28032,11651.2
4.37915,11651.6
4.47784,11651.2
4.57662,11647.2
4.67545,11647.8
4.7741,11644
4.87302,11644.3
4.97185,11640.5
5.07041,11639.2
5.16928,11637.1
5.26816,11636.5
5.3668,11632.3
5.46564,11631.3
5.56451,11627.9
5.66311,11625.3
5.76199,11622.9
5.86077,11618.7
5.95942,11620.2
6.05825,11614.6
6.15713,11612.2
6.25577,11609.1
6.3546,11606.1
6.45353,11602
6.55213,11600.9
6.651,11594.1
6.74974,11593.5
6.84843,11588.6
6.94726,11584.3
7.04614,11581.9
7.14474,11577.5
7.24366,11572.3
7.34254,11567
7.44114,11564.2
7.53997,11558.8
7.6388,11557.2
7.73745,11550.1
7.83628,11547.5
7.93515,11539.3
8.03375,11534.4
8.13268,11531.4
8.23151,11528.3
8.33015,11522
8.42894,11515.9
8.52782,11510.6
8.62651,11504.2
8.72534,11498.9
8.82417,11490.9
8.92277,11485
9.02164,11480.4
9.12048,11475.5
9.21912,11465.8
9.31795,11461.7
9.41678,11452.6
9.51547,11444
9.6143,11435.7
9.71304,11428.3
9.81178,11421.6
9.91066,11412.9
10.0095,11404
10.1081,11395.2
10.207,11385
10.3059,11374.3
10.4045,11366.2
10.5033,11353.7
10.6021,11345
10.7008,11330
10.7997,11321.3
10.8985,11306.3
10.9972,11295.3
11.0961,11281.1
11.1949,11266.3
11.2935,11250.6
11.3923,11233.4
11.4912,11216.1
11.5898,11195.2
11.6887,11175.2
11.7875,11152.2
11.8862,11130
11.985,11106.7
12.0839,11081.1
12.1826,11045.4
12.2814,11016.8
12.3802,10979.8
12.4788,10945.1
12.5777,10901.7
12.6766,10862.1
12.7753,10816.7
12.8741,10768.3
12.973,10715
13.0716,10660.7
13.1705,10604.6
13.2693,10540.3
13.3679,10476.5
13.4668,10405.4
13.5656,10337
13.6643,10258.1
13.7632,10177.8
13.8621,10088.9
13.9607,10000.3
14.0596,9901
14.1583,9800.14
14.2571,9692.39
14.3559,9574.83
14.4546,9449.25
14.5535,9316.36
14.6523,9175.82
14.751,9017.75
14.8499,8851.45
14.9488,8666.16
15.0474,8469.05
15.1463,8241.69
15.2451,7991.22
15.3438,7706.79
15.4427,7383.12
15.5417,7004.33
15.6403,6540.83
15.7392,5939.35
15.8098,2755.46