File: data/PrimaryData/Steel_1018/Tensile_008.csv
Displacement (mm),Load (N)
0.000198726,13.0388
0.000355082,13.2379
0.00042768,15.3913
0.000343589,20.3601
0.000592948,29.1942
0.000414678,43.003
0.000490587,62.6575
0.000786751,89.9911
0.00108917,123.432
0.00113661,158.419
0.00136093,204.171
0.00153861,254.683
0.00183766,306.631
0.00212287,357.094
0.00264791,419.261
0.00292945,486.167
0.00345046,552.019
0.00374803,628.192
0.00414674,703.337
0.00466907,784.896
0.00530564,870.852
0.00575135,962.609
0.00627437,1059.03
0.00704021,1157.62
0.00764779,1256.83
0.00837585,1365.93
0.0086972,1466.87
0.00921599,1571.86
0.0102458,1681.05
0.0106497,1775.28
0.0113099,1877.64
0.0118683,1991.76
0.0127748,2106.87
0.0133562,2223.57
0.014243,2339.5
0.0148962,2456.27
0.0156622,2577.59
0.0164984,2699.31
0.0172741,2824.09
0.0180203,2949.91
0.0190101,3078.41
0.0196262,3210.4
0.0204576,3341.75
0.0215876,3471.53
0.0224336,3601.96
0.0232083,3737.28
0.0239955,3877.22
0.0248851,4010.87
0.025851,4142.48
0.0266403,4274.33
0.0273684,4394.27
0.0279777,4522.08
0.0287671,4641.69
0.0297446,4747.64
0.0298878,4845.13
0.0304686,4948.7
0.0311877,5046.69
0.0318738,5149.48
0.0326134,5258.25
0.0332661,5363.67
0.0336707,5469.56
0.0342915,5577.91
0.0349514,5690.38
0.0357977,5802.19
0.0367539,5916.79
0.0374548,6023.97
0.0379527,6118.7
0.0386348,6198.83
0.0394364,6270.49
0.0398296,6349.5
0.0404046,6427.37
0.0409311,6504.53
0.0414855,6582.67
0.0423321,6668.32
0.0427906,6748.69
0.0438196,6843.44
0.0441743,6926.65
0.0448872,7016.46
0.0456458,7105.43
0.0462519,7196.4
0.047201,7287.89
0.048099,7382.8
0.0485562,7475.91
0.049329,7573.09
0.0502908,7672.08
0.05115,7771.55
0.0517531,7873.54
0.052782,7975.72
0.0541318,8080.61
0.054817,8184.47
0.0557102,8289.45
0.0569189,8398.82
0.0578006,8508.17
0.0589815,8617.01
0.0600146,8731.36
0.0609688,8846.98
0.0623966,8960.41
0.0635794,9080.51
0.0649506,9201.71
0.0663394,9320.87
0.0676838,9446.65
0.0690538,9571.16
0.0704138,9694.13
0.0719266,9821.26
0.0735051,9949.39
0.075146,10078.3
0.0770848,10205.8
0.0788937,10337.7
0.0809846,10471.5
0.0826934,10604
0.0848968,10737.2
0.0872261,10869.8
0.0893519,11004.5
0.0917586,11145
0.0942254,11281.9
0.0972544,11417.4
0.0999743,11556.9
0.102899,11691.1
0.10625,11827.9
0.110033,11967.6
0.113505,12098.2
0.117513,12229.4
0.122073,12361.9
0.126977,12495.1
0.131969,12624.6
0.13757,12745.8
0.143929,12863.6
0.150592,12982.1
0.158245,13091.6
0.176227,13446
0.209898,13685
0.24925,13857.4
0.293682,13978.1
0.343306,14066.7
0.396227,14129.2
0.451632,14176.7
0.508832,14212.9
0.567978,14243.5
0.628865,14270.1
0.690419,14295.6
0.752521,14314.4
0.816277,14336.9
0.880035,14351.2
0.94442,14368.2
1.00947,14380.1
1.07502,14390.5
1.14105,14403.9
1.20723,14414.3
1.28485,14423.1
1.38344,14430.7
1.48228,14439.7
1.58111,14445.7
1.6798,14452.2
1.77868,14455.8
1.87751,14462.6
1.97615,14467.3
2.07498,14473.3
2.17381,14476
2.27241,14481.9
2.37124,14483.2
2.47012,14484.9
2.56881,14486.9
2.6676,14488.5
2.76652,14494.1
2.86512,14494.6
2.964,14497.2
3.06278,14494.7
3.16142,14497.4
3.26035,14496.5
3.35913,14499.6
3.45778,14498.4
3.55656,14500.9
3.65544,14501
3.75408,14501.2
3.85301,14500.1
3.95179,14499.6
4.05044,14498.2
4.14932,14500.1
4.24815,14499
4.34675,14494.9
4.44558,14497.9
4.54445,14494.3
4.6431,14495
4.74193,14490.7
4.84076,14492.2
4.93945,14488.5
5.03833,14489.4
5.13711,14486.6
5.23567,14483.7
5.33459,14480.9
5.43347,14479.5
5.53216,14477.5
5.63099,14474.6
5.72982,14471.5
5.82847,14470.8
5.9273,14468.3
6.02613,14464.6
6.12477,14464.2
6.2236,14457.9
6.32248,14457
6.42113,14452.7
6.51996,14451.6
6.61883,14449.1
6.71743,14445.6
6.81631,14441.2
6.9151,14437.3
7.01374,14434
7.11262,14429.9
7.2115,14427.5
7.31009,14422.1
7.40892,14419.7
7.5078,14415
7.60645,14412.3
7.70532,14405.4
7.80416,14403.2
7.90285,14394.9
8.00163,14392.4
8.10046,14384.2
8.19911,14382.5
8.29798,14378.5
8.39691,14373.7
8.49555,14366.6
8.59438,14359.9
8.69322,14354.9
8.79181,14349.3
8.89064,14342.8
8.98943,14338.1
9.08803,14333.4
9.187,14326.7
9.28583,14320.6
9.38452,14313.2
9.48335,14306.1
9.58223,14297.6
9.68083,14292.5
9.77966,14284.2
9.87844,14276.9
9.97713,14269.2
10.076,14261.9
10.1749,14254
10.2735,14244.7
10.3723,14235.8
10.4712,14227.4
10.5698,14221.1
10.6687,14206.8
10.7675,14196.3
10.8661,14183.3
10.965,14173.4
11.0639,14160.9
11.1625,14149.1
11.2614,14137.3
11.3602,14123.1
11.4589,14105.7
11.5577,14091.3
11.6566,14075.5
11.7552,14055.1
11.8541,14037.1
11.9529,14016.9
12.0515,13997.9
12.1504,13972.7
12.2493,13947.7
12.3479,13921.5
12.4467,13892.3
12.5455,13861.9
12.6442,13829.7
12.7431,13793.4
12.8419,13757.6
12.9405,13715.6
13.0394,13670.2
13.1383,13627.2
13.2369,13575.9
13.3358,13525.8
13.4346,13467.5
13.5332,13410.8
13.6321,13346
13.7309,13279.8
13.8296,13211.8
13.9285,13139.1
14.0274,13060.2
14.126,12976.9
14.2249,12892
14.3237,12802.4
14.4223,12706.2
14.5212,12599.5
14.62,12492.8
14.7187,12377.8
14.8176,12257
14.9165,12124.1
15.0151,11987.3
15.114,11835.5
15.2129,11675.8
15.3116,11499.3
15.4104,11310.3
15.5093,11105
15.6079,10880
15.7069,10627.3
15.8057,10341.2
15.9044,10016.4
16.0034,9627.45
16.0745,4981.01