File: data/PrimaryData/Steel_1018/Tensile_test_4.csv
Displacement (mm),Load (N)
0.000704855,4.97258
0.00139919,10.3958
0.00148283,12.8643
0.00138691,12.9016
-0.000788173,15.2148
0.00150107,25.9558
-0.000145232,22.0603
0.00180108,44.8545
0.00148962,63.9453
0.00120503,86.9592
0.000267764,115.684
0.00022471,161.353
0.00224547,227.774
0.00210227,290.145
0.00238009,365.602
0.00146014,440.938
0.00418177,535.833
0.00529325,632.297
0.0037867,720.432
0.00411063,825.391
0.00471266,931.934
0.00707239,1046.42
0.00849216,1159.4
0.00897343,1259.93
0.00955103,1346.56
0.00932453,1438.53
0.0101787,1536.24
0.0116615,1633.52
0.0119426,1733.47
0.0107042,1835.31
0.0111593,1942.37
0.0135084,2055.22
0.0135817,2165.38
0.0158379,2288.48
0.0152627,2401.48
0.01726,2520.54
0.0156963,2626.88
0.0188011,2755.09
0.0178111,2865.45
0.0188555,2988.9
0.0191928,3106.83
0.0222412,3226.68
0.0204748,3322.48
0.0235763,3429.86
0.0237051,3517.07
0.0246806,3608.46
0.0253483,3690.9
0.0240694,3774.26
0.0238105,3854.64
0.0244328,3937.1
0.0275586,4030.11
0.025657,4106.2
0.0283096,4189.85
0.0269483,4267.45
0.028898,4361.46
0.0285215,4440.33
0.0305003,4532.22
0.0289976,4609.04
0.0300162,4697.53
0.032615,4796.93
0.0336594,4888.6
0.0333068,4981.23
0.0340025,5085.6
0.0348313,5177.52
0.0346069,5274.48
0.0370062,5384.97
0.0362694,5476.91
0.0364326,5585.65
0.0390722,5698.41
0.0405004,5825.92
0.0391972,5929.77
0.0425888,6055.83
0.0407193,6159.1
0.0415195,6279.39
0.0451639,6413.92
0.0467238,6542.35
0.0458324,6661.79
0.0463288,6788.59
0.0497826,6924.64
0.0500865,7053.61
0.0523197,7194.82
0.0529507,7327.5
0.0547077,7467.83
0.0540144,7600.79
0.0567506,7752.27
0.0587839,7892.47
0.060347,8047.62
0.0623458,8190.32
0.0638567,8340.63
0.0638468,8487.26
0.0649866,8641.79
0.0695644,8808.02
0.0702502,8961.11
0.0716995,9111.18
0.0738941,9270.92
0.0762434,9437.66
0.0806466,9606.13
0.0821316,9760.3
0.0838206,9919.67
0.0894211,10091.1
0.0903316,10243
0.0957662,10415.1
0.0971681,10565
0.102386,10732.4
0.107491,10891
0.111624,11044.8
0.114718,11187.4
0.122958,11345.3
0.126271,11479.5
0.133955,11620.8
0.140477,11743.9
0.148619,11868.9
0.160415,11989.9
0.169591,12091.3
0.180382,12185.1
0.192641,12271.7
0.205252,12344.8
0.2164,12397.5
0.23098,12452.3
0.24638,12503.3
0.267657,12700.4
0.325266,12836.3
0.39069,12912
0.453961,12950.8
0.524146,13001.9
0.592676,13037.4
0.661977,13053.8
0.730715,13070.8
0.804477,13098.5
0.875318,13115.5
0.94585,13128.6
1.01889,13144.2
1.09321,13158.7
1.16569,13174
1.23904,13182.5
1.33807,13189
1.44398,13197.3
1.5498,13213.2
1.65562,13208
1.76148,13228.5
1.86735,13223
1.97302,13225.2
2.07903,13245.1
2.1848,13245.9
2.29057,13252.5
2.39648,13261.1
2.5023,13261
2.60807,13259
2.71398,13261
2.81984,13260.8
2.92556,13270.3
3.03147,13268.3
3.13729,13282.7
3.24311,13271.7
3.34897,13284
3.45479,13281.2
3.56061,13287.9
3.66642,13280
3.77233,13279.5
3.87806,13289.6
3.98402,13280.625
4.08983,13282.4
4.1956,13282.1
4.30147,13293.1
4.40728,13283.5
4.51315,13294
4.61892,13293.7
4.72478,13296.1
4.8306,13284.6
4.93646,13293.8
5.04233,13295.5
5.14815,13283.4
5.25392,13283.7
5.35983,13289
5.46569,13276.5
5.57146,13287
5.67737,13286.7
5.78319,13282.1
5.88896,13271.25
5.99487,13276.7
6.10064,13276.7
6.20646,13263.6
6.31237,13276.2
6.41818,13272.9
6.52391,13264.6
6.62986,13268.1
6.73568,13266.4
6.8415,13261.9
6.94732,13256.3
7.05318,13249.3
7.159,13246
7.26486,13248.1
7.37063,13239.1
7.47645,13233
7.58231,13230.5
7.68818,13226
7.79395,13223.9
7.89981,13216.7
8.00568,13219
8.11145,13218.1
8.21731,13213.3
8.32322,13200
8.42899,13207.9
8.53476,13197.5
8.64072,13196.2
8.74649,13186.4
8.85231,13178.7
8.95822,13171.8
9.06394,13169.5
9.16981,13175.3
9.27562,13154.5
9.38144,13150.7
9.4873,13147.4
9.59317,13148
9.69894,13134
9.8048,13126.4
9.91066,13124.5
10.0165,13119.5
10.1223,13116.7
10.2282,13100.2
10.334,13087
10.4398,13085.1
10.5457,13084.4
10.6515,13080.4
10.7573,13055.8
10.8632,13057.6
10.969,13052.7
11.0748,13033.9
11.1807,13026.6
11.2865,13022.8
11.3924,13001.5
11.4981,12987.6
11.604,12977.9
11.7098,12967.6
11.8157,12957.1
11.9215,12938.2
12.0274,12926.5
12.1332,12910.6
12.2391,12889.8
12.3449,12872.5
12.4507,12856.4
12.5566,12829.9
12.6624,12811.6
12.7682,12787
12.8741,12758.7
12.9799,12721.3
13.0857,12699.3
13.1916,12664.8
13.2974,12627.9
13.4033,12587.1
13.5091,12535.9
13.615,12508
13.7208,12454.8
13.8267,12405.4
13.9324,12343.9
14.0383,12290.9
14.1441,12234.1
14.2499,12162.3
14.3558,12094.4
14.4615,12025.5
14.5674,11943.4
14.6733,11849.4
14.7792,11764.5
14.885,11663.4
14.9909,11563
15.0967,11459
15.2026,11345
15.3085,11231.8
15.4143,11101.6
15.5202,10960
15.626,10801.4
15.7319,10654.2
15.8377,10478
15.9435,10302.4
16.0494,10093.7
16.1553,9879.2
16.2611,9639.31
16.3671,9372.66
16.4729,9081.67
16.5788,8755.39
16.6847,8347.95
16.791,4555.59
16.8812,1251.66