File: data/PrimaryData/Steel_1018/Tensile_test_1.csv
Displacement (mm),Load (N)
0.00029101,0.72046
9.74677e-05,2.2188
0.000135365,8.03528
0.000214068,17.4521
1.45733e-05,29.3216
0.000411408,44.4046
0.0004202,64.713
0.000411733,84.1457
0.000733038,101.7
0.00051398,117.187
0.000554125,131.261
0.000720518,149.581
0.000836019,167.349
0.000852373,184.624
0.000778944,202.675
0.000654614,220.484
0.000821277,237.643
0.000995194,252.486
0.000601607,269.827
0.000953842,288.657
0.000966534,306.943
0.00121726,330.685
0.00122478,356.237
0.00147431,383.476
0.00142818,410.741
0.00164082,440.799
0.00170287,473.667
0.00170739,509.658
0.00186669,547.906
0.00219076,591.029
0.00216678,637.63
0.00269759,686.203
0.00261901,740.026
0.00295821,793.199
0.00277389,851.269
0.00325629,910.878
0.0034381,975.419
0.00347251,1045.49
0.0037041,1110.45
0.00399441,1178.73
0.0044001,1257.16
0.00450092,1330.49
0.00452011,1412.44
0.00499154,1491.49
0.00504637,1579.92
0.00536315,1668.61
0.00565595,1759.31
0.0063138,1857.19
0.0065302,1955.72
0.00679909,2057.44
0.00737992,2160.38
0.00774949,2266.41
0.0080069,2374.56
0.00857224,2483.61
0.00897616,2598.11
0.00924768,2712.625
0.00999616,2833.11
0.0106169,2951.35
0.0108572,3067.75
0.011374,3188.96
0.0118069,3311.51
0.0122489,3420.72
0.0124162,3533.9
0.0126369,3636.34
0.0131472,3758.2
0.013624,3877.27
0.0140068,3991.92
0.014441,4110.95
0.015011,4233.04
0.0156775,4353.69
0.0161985,4476.69
0.0169336,4601
0.0176145,4726.96
0.0181957,4855.3
0.0187727,4980.57
0.0195577,5105.88
0.0201542,5234.88
0.0210163,5370.21
0.0218682,5495.81
0.0223214,5630.79
0.0230302,5761.12
0.0240445,5899.57
0.0248969,6033.17
0.0256222,6174.92
0.0266735,6317.17
0.0275034,6457.16
0.0284369,6599.4
0.0295207,6746.93
0.0304758,6893.64
0.0315329,7040.98
0.0326732,7189.89
0.0338898,7345.08
0.0349204,7498.55
0.0361737,7651.2
0.0373143,7810.22
0.0386303,7975.06
0.0399797,8136.04
0.0412828,8302.49
0.0427626,8466.78
0.0444361,8632.38
0.04589,8807.67
0.0473885,8983.3
0.0489308,9156.95
0.0508192,9330.21
0.052839,9506.2
0.0547301,9685.63
0.0568791,9863.11
0.0591294,10046.2
0.0612091,10228.3
0.0634372,10411.7
0.0662116,10592.3
0.068558,10777.8
0.0712582,10962.1
0.07481,11151.4
0.0778119,11335.2
0.0814764,11517.7
0.0844414,11703.4
0.0884436,11883.4
0.0927927,12059.7
0.107609,12673.1
0.12491,13109.1
0.1456,13492.9
0.171376,13810.3
0.205008,14061.6
0.246412,14241.6
0.295916,14373.2
0.35159,14462.3
0.411302,14526.3
0.47455,14579
0.539737,14620
0.605365,14653.1
0.671315,14686.7
0.737533,14711.5
0.803832,14736
0.870756,14757.1
0.937755,14772.9
1.00485,14793.9
1.0728,14809.4
1.14123,14820.4
1.20988,14832.8
1.27957,14846.9
1.34916,14853.6
1.41906,14864.9
1.4888,14876.2
1.55954,14882.9
1.63067,14894.5
1.70133,14898.2
1.77276,14906.9
1.84478,14914.4
1.91668,14918.9
1.98849,14923.4
2.06121,14929.9
2.13425,14930.7
2.20705,14935.5
2.28046,14939.9
2.35401,14939.8
2.428,14943.7
2.50168,14945.7
2.57595,14948.2
2.65053,14951.9
2.72498,14955.3
2.7997,14954
2.87538,14960.5
2.95076,14959.7
3.02628,14961.9
3.10192,14963.1
3.17806,14962.1
3.25447,14963
3.33105,14963.6
3.40801,14964.2
3.48486,14963.6
3.56153,14961.7
3.63905,14963
3.7167,14961.7
3.79451,14960.6
3.8728,14961.5
3.95087,14962
4.03005,14958.9
4.10828,14959.7
4.18702,14958.7
4.26604,14957.8
4.34552,14957.4
4.42462,14954.6
4.50452,14951.3
4.58424,14951.7
4.66408,14950.7
4.74423,14942.7
4.8245,14944.1
4.90567,14942.4
4.98653,14939.1
5.06767,14937.6
5.14995,14936
5.23203,14931.2
5.31373,14930
5.39602,14930
5.47845,14924.4
5.56127,14923.8
5.64446,14919.7
5.72828,14917.4
5.81175,14911.4
5.89602,14908.5
5.9805,14905.6
6.06521,14899.3
6.15048,14896.3
6.23536,14893.1
6.32128,14888.7
6.4072,14884.6
6.49315,14881.2
6.57905,14876.4
6.6664,14875.2
6.75387,14868.4
6.84091,14863.3
6.92865,14859.9
7.01736,14855.6
7.10595,14845.3
7.19433,14844.7
7.28418,14837.1
7.37403,14829.6
7.46397,14828.7
7.55454,14820.7
7.64574,14814.2
7.73685,14812.1
7.8287,14802.3
7.9211,14796.2
8.01443,14792.3
8.10757,14784.3
8.20158,14778.9
8.29634,14772.2
8.39186,14761.6
8.48689,14754.1
8.583,14747
8.67956,14736.9
8.77627,14729.1
8.87301,14721
8.97091,14713.5
9.06927,14702.7
9.16774,14691.5
9.26638,14685.9
9.36631,14673.7
9.46668,14660.6
9.56718,14650.5
9.66798,14637.9
9.77002,14625.4
9.87152,14612.4
9.97386,14597.3
10.0766,14579.1
10.1796,14566.6
10.2826,14547.9
10.3867,14530.1
10.4913,14514
10.596,14490.4
10.7006,14468.9
10.8065,14445.1
10.9125,14416.3
11.0184,14389
11.1246,14358.1
11.2311,14324
11.3376,14285.8
11.4439,14247.6
11.5507,14204.5
11.6576,14160.6
11.7643,14106.3
11.8709,14056.2
11.9784,13999.2
12.0858,13937.2
12.1934,13872.4
12.3012,13806.4
12.4096,13730.8
12.5169,13654.3
12.6244,13570.6
12.7324,13481.6
12.841,13390.6
12.9488,13288.7
13.0565,13182.9
13.165,13071.6
13.2731,12946.5
13.3813,12820.5
13.4902,12683.7
13.5994,12534.1
13.7085,12374.1
13.8181,12203.6
13.9283,12011.6
14.0385,11805.4
14.1486,11575.2
14.2598,11318.6
14.3713,11030.2
14.4824,10704.7
14.5914,10331
14.7036,9895.62
14.8184,9365.58
18.0706,-116.979