File: data/PrimaryData/Steel_1018/Tensile_007.csv
Displacement (mm),Load (N)
0.000172601,-10.8755
0.000284123,-9.21167
0.000249374,-5.49054
0.00060677,0.101253
0.001082,8.60251
0.000389901,16.0288
0.00123053,19.4718
0.00122674,31.4595
0.00147977,52.9056
0.00133811,81.678
0.00158823,118.265
0.00148495,163.711
0.00199585,214.367
0.00302001,281.343
0.00230633,338.947
0.00393737,405.447
0.0032353,460.993
0.0048015,492.982
0.00349082,488.469
0.00426334,496.034
0.00413776,514.219
0.0044089,534.401
0.00522701,565.207
0.00463362,592.31
0.00504522,622.17
0.00544401,652.22
0.00635395,689.773
0.00653205,725.965
0.00611413,760.823
0.00666894,798.132
0.00673609,833.799
0.00781027,876.256
0.00811798,918.788
0.00786473,961.728
0.0084448,1010.41
0.00933961,1061.92
0.00922909,1110.81
0.00975713,1160.21
0.0104268,1212.49
0.0114381,1265.22
0.0105524,1321.25
0.0112777,1376
0.0114965,1436.83
0.0134085,1505.06
0.0138333,1561.66
0.014247,1631.89
0.0145519,1696.85
0.0148586,1761.91
0.0166509,1841.94
0.017254,1909.56
0.0173437,1979.99
0.0184099,2060.89
0.0192329,2140.85
0.0199215,2219.44
0.0201942,2299.41
0.0210909,2383.94
0.0221846,2472.29
0.0224998,2559.32
0.0232749,2647.09
0.0251437,2744.25
0.0260441,2831.53
0.0264746,2923.82
0.0280842,3027.63
0.028354,3122.85
0.0301972,3226.35
0.0310035,3332.12
0.0326768,3437.01
0.033864,3545.46
0.0349066,3684.68
0.0357215,3771.24
0.0378628,3887.76
0.0386038,4000.74
0.0404791,4115.95
0.0415507,4229.98
0.0436105,4351.96
0.0455157,4471.03
0.0473335,4597.71
0.0482064,4717.25
0.050288,4844.41
0.0522778,4971.91
0.0552716,5100.56
0.056927,5227.1
0.0590601,5356.48
0.0611599,5491.2
0.0634242,5615.66
0.0661877,5756.67
0.0688368,5882.96
0.0716104,6022.32
0.074885,6156.48
0.0780481,6288.02
0.0816391,6424.32
0.0851557,6555.47
0.0885031,6683.09
0.092453,6809.49
0.0969022,6937.83
0.100732,7059.92
0.106251,7185.99
0.111084,7304.22
0.116178,7421.66
0.122011,7536.39
0.128351,7647.76
0.134646,7756.25
0.142042,7862.32
0.149199,7958.75
0.157056,8057.84
0.165965,8146.87
0.173761,8231.09
0.184123,8317.28
0.1932,8384.97
0.204143,8465.17
0.215744,8529.15
0.227358,8592.36
0.239286,8642.48
0.252658,8702.67
0.26597,8744.27
0.280025,8789.51
0.294944,8825.18
0.309536,8862.78
0.325438,8891.39
0.34211,8922.22
0.357122,8872.25
0.418111,9202.77
0.4836,9259.7
0.550434,9306.17
0.618243,9345.02
0.685516,9377.03
0.754853,9409.85
0.823473,9430.4
0.893913,9456.64
0.964248,9475.84
1.03547,9497.17
1.10582,9513.16
1.17748,9530.75
1.2496,9544.47
1.35453,9557.43
1.46044,9568.03
1.56621,9580.92
1.67202,9594.21
1.77789,9601.83
1.88371,9609.99
1.98952,9620.32
2.09539,9625.85
2.2012,9632.76
2.30707,9637.02
2.41293,9642.6
2.5187,9648.63
2.62457,9651.43
2.73038,9656.23
2.8362,9663.12
2.94206,9663.93
3.04793,9665.86
3.1537,9674.84
3.25956,9672.55
3.36538,9681.12
3.47124,9680.25
3.57701,9681.76
3.68292,9686.78
3.7887,9684.58
3.89447,9684.41
4.00038,9687.23
4.10619,9684.65
4.21201,9688.24
4.31787,9689.91
4.42374,9688.89
4.52951,9688.39
4.63542,9692.45
4.74128,9692.94
4.84701,9693.92
4.95292,9694.36
5.05869,9690.48
5.16451,9691.43
5.27032,9692.3
5.37623,9687.43
5.48191,9686.21
5.58791,9686.75
5.69373,9687.13
5.7995,9683.03
5.90541,9682.05
6.01123,9680.03
6.11705,9682.09
6.22291,9679.29
6.32868,9680.36
6.43455,9678.17
6.54041,9676.17
6.64618,9675.41
6.75204,9668.19
6.85786,9662.07
6.96372,9666.54
7.06954,9658.54
7.17531,9654.45
7.28122,9656.07
7.38704,9653.78
7.49286,9648.63
7.59872,9644.67
7.70454,9640.94
7.81031,9638.84
7.91627,9639.09
8.02208,9631.66
8.12781,9631.24
8.23376,9627.6
8.33953,9621.9
8.44535,9617.79
8.55122,9612.58
8.65708,9609.4
8.76285,9604.39
8.86881,9600.27
8.97462,9594.03
9.08044,9587.9
9.1863,9584.05
9.29208,9579.8
9.3978,9574.71
9.50371,9567.36
9.60953,9565.28
9.71534,9562.38
9.82121,9552.32
9.92707,9547.45
10.0328,9539.85
10.1387,9535.78
10.2446,9532.92
10.3504,9524.35
10.4562,9514.01
10.5621,9509.86
10.6678,9499.76
10.7737,9498.21
10.8796,9488.66
10.9853,9480.61
11.0912,9471.15
11.1971,9465.7
11.3029,9456.64
11.4087,9448.11
11.5146,9440.76
11.6204,9429.29
11.7262,9422.14
11.8321,9407.95
11.9379,9399.47
12.0437,9388.58
12.1496,9373.23
12.2554,9363.71
12.3612,9354.09
12.4671,9336.64
12.5729,9326.05
12.6788,9313.14
12.7846,9296.73
12.8904,9282.99
12.9963,9262.34
13.1021,9243.52
13.2079,9223.15
13.3138,9201.89
13.4196,9177.18
13.5255,9156.53
13.6314,9125.76
13.7371,9100.14
13.843,9070.04
13.9488,9034.27
14.0546,9000.09
14.1605,8962
14.2663,8919.4
14.3721,8874.07
14.478,8824.05
14.5838,8775.02
14.6897,8718.32
14.7955,8659.95
14.9014,8599.09
15.0072,8530.26
15.113,8458.78
15.2189,8381.78
15.3247,8306.2
15.4306,8221.15
15.5365,8137.14
15.6423,8041.57
15.7482,7938.78
15.854,7833.39
15.9599,7721.84
16.0657,7597.12
16.1715,7469.68
16.2774,7326.125
16.3832,7174.7
16.4891,7013.87
16.595,6834.72
16.7008,6645.61
16.8067,6439.32
16.9126,6209.79
17.0184,5957.56
17.1243,5674.87
17.2301,5352
17.336,4976.15
17.4419,4532.85
17.5316,-470.77